Tempo(s)	Deformacao(mm)	Forca(N)
 0,016667 	0,00000 	-8,4362 
0,16667 	0,00034524 	-8,4362 
0,21667 	0,00077679 	-8,4362 
0,25000 	0,0011220 	-8,4362 
0,28333 	0,0014673 	-8,4362 
0,33333 	0,0018988 	-8,4362 
0,36667 	0,0022441 	-8,4362 
0,41667 	0,0026756 	-8,4362 
0,45000 	0,0030209 	-8,4362 
0,50000 	0,0034524 	-8,4362 
0,55000 	0,0037976 	-6,7490 
0,60000 	0,0042292 	-8,4362 
0,65000 	0,0046607 	-8,4362 
0,70000 	0,0050060 	-8,4362 
0,78333 	0,0054375 	-8,4362 
0,83333 	0,0057828 	-8,4362 
0,88333 	0,0061280 	-8,4362 
0,93333 	0,0065596 	-6,7490 
0,98333 	0,0069911 	-6,7490 
1,0333 	0,0075090 	-5,0617 
1,0667 	0,0078542 	-3,3745 
1,1000 	0,0081994 	-1,6872 
1,1333 	0,0085447 	0,00000 
1,1833 	0,0089762 	3,3695 
1,2333 	0,0094078 	6,7390 
1,2833 	0,0098393 	10,109 
1,3333 	0,010271 	13,478 
1,3667 	0,010616 	16,848 
1,4167 	0,011048 	21,902 
1,4667 	0,011393 	26,956 
1,5000 	0,011738 	28,641 
1,5500 	0,012170 	35,380 
1,6000 	0,012601 	40,434 
1,6500 	0,013033 	43,804 
1,7000 	0,013378 	50,543 
1,7500 	0,013810 	55,597 
1,8000 	0,014155 	58,966 
1,8333 	0,014500 	62,336 
1,8833 	0,014845 	67,390 
1,9333 	0,015277 	72,444 
1,9833 	0,015622 	77,499 
2,0333 	0,016054 	80,868 
2,0833 	0,016399 	85,923 
2,1333 	0,016830 	89,292 
2,1833 	0,017262 	94,346 
2,2333 	0,017694 	99,401 
2,2667 	0,018039 	102,77 
2,3167 	0,018384 	107,82 
2,3500 	0,018729 	111,19 
2,4000 	0,019161 	116,25 
2,4500 	0,019592 	121,30 
2,5000 	0,020024 	126,36 
2,5500 	0,020369 	131,41 
2,5833 	0,020714 	133,10 
2,6333 	0,021060 	138,15 
2,6833 	0,021491 	141,52 
2,7333 	0,021923 	146,57 
2,7833 	0,022268 	151,63 
2,8167 	0,022613 	155,00 
2,8667 	0,022958 	160,05 
2,9167 	0,023390 	163,42 
2,9667 	0,023822 	168,48 
3,0167 	0,024253 	173,53 
3,0667 	0,024685 	178,58 
3,1167 	0,025116 	183,64 
3,1667 	0,025548 	188,69 
3,2167 	0,025979 	193,75 
3,2667 	0,026411 	198,80 
3,3167 	0,026842 	202,17 
3,3667 	0,027274 	207,22 
3,4167 	0,027706 	212,28 
3,4667 	0,028051 	217,33 
3,5000 	0,028396 	220,70 
3,5500 	0,028741 	225,76 
3,5833 	0,029086 	229,13 
3,6333 	0,029432 	234,18 
3,6667 	0,029777 	235,87 
3,7167 	0,030122 	240,92 
3,7667 	0,030554 	245,97 
3,8167 	0,030899 	251,03 
3,8500 	0,031244 	254,40 
3,9000 	0,031589 	257,77 
3,9333 	0,031935 	262,82 
3,9833 	0,032366 	267,88 
4,0333 	0,032711 	271,25 
4,0667 	0,033057 	276,30 
4,1167 	0,033488 	281,35 
4,1667 	0,033920 	286,41 
4,2167 	0,034351 	291,46 
4,2667 	0,034783 	296,52 
4,3167 	0,035128 	301,57 
4,3667 	0,035560 	306,63 
4,4167 	0,035905 	309,99 
4,4500 	0,036250 	313,36 
4,5000 	0,036595 	318,42 
4,5500 	0,037027 	323,47 
4,6000 	0,037459 	328,53 
4,6500 	0,037804 	333,58 
4,7000 	0,038235 	338,64 
4,7500 	0,038667 	343,69 
4,8000 	0,039098 	348,74 
4,8500 	0,039530 	352,11 
4,8833 	0,039789 	358,85 
4,9167 	0,040134 	360,54 
4,9667 	0,040566 	365,59 
5,0167 	0,040997 	372,33 
5,0667 	0,041429 	375,70 
5,1167 	0,041860 	382,44 
5,1667 	0,042292 	387,49 
5,2167 	0,042637 	392,55 
5,2667 	0,043069 	397,60 
5,3167 	0,043500 	402,66 
5,3667 	0,043845 	407,71 
5,4000 	0,044191 	412,76 
5,4500 	0,044536 	417,82 
5,5000 	0,044968 	422,87 
5,5500 	0,045399 	427,93 
5,6000 	0,045831 	432,98 
5,6500 	0,046262 	438,04 
5,7000 	0,046694 	444,78 
5,7333 	0,047039 	448,14 
5,7833 	0,047470 	453,20 
5,8333 	0,047902 	459,94 
5,8833 	0,048334 	464,99 
5,9333 	0,048765 	470,05 
5,9833 	0,049197 	475,10 
6,0333 	0,049542 	481,84 
6,0833 	0,049973 	485,21 
6,1333 	0,050405 	491,95 
6,1833 	0,050750 	497,00 
6,2167 	0,051096 	500,37 
6,2667 	0,051441 	505,43 
6,3000 	0,051786 	508,80 
6,3500 	0,052131 	515,53 
6,4000 	0,052563 	522,27 
6,4500 	0,052908 	523,96 
6,5000 	0,053340 	530,70 
6,5500 	0,053771 	537,44 
6,5833 	0,054116 	540,81 
6,6333 	0,054462 	545,86 
6,6667 	0,054807 	549,23 
6,7167 	0,055238 	555,97 
6,7667 	0,055670 	561,02 
6,8167 	0,056102 	567,76 
6,8667 	0,056533 	572,82 
6,9333 	0,057051 	581,24 
7,0000 	0,057569 	587,98 
7,0667 	0,058087 	594,72 
7,1333 	0,058604 	601,46 
7,2000 	0,059122 	609,88 
7,2667 	0,059640 	616,62 
7,3333 	0,060158 	623,36 
7,3833 	0,060590 	628,41 
7,4333 	0,061021 	635,15 
7,4833 	0,061453 	640,21 
7,5167 	0,061798 	646,95 
7,5833 	0,062316 	653,68 
7,6333 	0,062747 	658,74 
7,6833 	0,063179 	665,48 
7,7333 	0,063610 	672,22 
7,7833 	0,064042 	677,27 
7,8333 	0,064387 	684,01 
7,8833 	0,064819 	689,06 
7,9333 	0,065250 	695,80 
8,0000 	0,065768 	700,86 
8,0500 	0,066113 	707,60 
8,1000 	0,066545 	712,65 
8,1500 	0,066977 	719,39 
8,2000 	0,067408 	726,13 
8,2667 	0,068012 	734,55 
8,3333 	0,068616 	741,29 
8,3833 	0,069048 	749,72 
8,4500 	0,069652 	758,14 
8,5000 	0,070084 	764,88 
8,5500 	0,070515 	771,62 
8,6167 	0,071033 	780,04 
8,6833 	0,071551 	786,78 
8,7333 	0,071983 	793,52 
8,8000 	0,072500 	801,94 
8,8667 	0,073018 	808,68 
8,9167 	0,073450 	815,42 
8,9833 	0,073968 	822,16 
9,0500 	0,074486 	828,90 
9,1000 	0,074917 	835,64 
9,1500 	0,075349 	842,38 
9,2000 	0,075866 	849,12 
9,2500 	0,076298 	855,86 
9,3000 	0,076730 	862,59 
9,3500 	0,077161 	869,33 
9,4000 	0,077593 	876,07 
9,4667 	0,078111 	884,50 
9,5333 	0,078628 	891,24 
9,5833 	0,079060 	897,97 
9,6333 	0,079405 	904,71 
9,6833 	0,079837 	911,45 
9,7667 	0,080441 	919,88 
9,8167 	0,080872 	926,62 
9,8667 	0,081304 	933,35 
9,9333 	0,081822 	941,78 
9,9833 	0,082253 	948,52 
10,033 	0,082685 	955,26 
10,083 	0,083117 	961,99 
10,133 	0,083634 	968,73 
10,183 	0,084066 	975,47 
10,233 	0,084497 	982,21 
10,283 	0,084929 	988,95 
10,333 	0,085274 	997,37 
10,383 	0,085706 	1004,1 
10,450 	0,086224 	1012,5 
10,500 	0,086655 	1019,3 
10,567 	0,087173 	1026,0 
10,617 	0,087605 	1034,4 
10,667 	0,088036 	1041,2 
10,733 	0,088554 	1049,6 
10,783 	0,088986 	1056,3 
10,833 	0,089417 	1063,1 
10,883 	0,089935 	1069,8 
10,933 	0,090367 	1078,2 
11,000 	0,090884 	1086,7 
11,050 	0,091402 	1093,4 
11,100 	0,091834 	1100,1 
11,150 	0,092265 	1108,6 
11,200 	0,092611 	1115,3 
11,267 	0,093128 	1123,7 
11,317 	0,093560 	1130,5 
11,367 	0,093992 	1137,2 
11,433 	0,094509 	1147,3 
11,500 	0,095114 	1155,7 
11,567 	0,095631 	1162,5 
11,617 	0,095977 	1169,2 
11,667 	0,096408 	1176,0 
11,717 	0,096840 	1182,7 
11,767 	0,097271 	1189,4 
11,817 	0,097703 	1196,2 
11,867 	0,098134 	1204,6 
11,933 	0,098739 	1213,0 
11,983 	0,099084 	1221,4 
12,050 	0,099688 	1229,9 
12,117 	0,10021 	1236,6 
12,167 	0,10055 	1243,3 
12,217 	0,10098 	1250,1 
12,267 	0,10141 	1256,8 
12,317 	0,10176 	1263,6 
12,367 	0,10219 	1270,3 
12,417 	0,10254 	1277,0 
12,483 	0,10305 	1285,5 
12,550 	0,10366 	1293,9 
12,617 	0,10418 	1304,0 
12,700 	0,10495 	1315,8 
12,767 	0,10547 	1325,9 
12,850 	0,10625 	1337,7 
12,933 	0,10694 	1349,5 
13,017 	0,10763 	1361,3 
13,083 	0,10815 	1371,4 
13,167 	0,10884 	1381,5 
13,250 	0,10944 	1391,6 
13,317 	0,11005 	1401,7 
13,400 	0,11074 	1411,8 
13,467 	0,11134 	1423,6 
13,550 	0,11203 	1433,7 
13,617 	0,11263 	1445,5 
13,700 	0,11341 	1457,3 
13,783 	0,11410 	1469,1 
13,867 	0,11479 	1480,9 
13,950 	0,11548 	1491,0 
14,033 	0,11609 	1501,1 
14,117 	0,11678 	1511,2 
14,200 	0,11738 	1523,0 
14,283 	0,11816 	1534,8 
14,350 	0,11876 	1544,9 
14,417 	0,11928 	1555,0 
14,483 	0,11988 	1565,1 
14,567 	0,12058 	1576,9 
14,633 	0,12118 	1587,0 
14,700 	0,12170 	1597,1 
14,783 	0,12239 	1607,3 
14,867 	0,12299 	1619,0 
14,950 	0,12368 	1630,8 
15,033 	0,12437 	1641,0 
15,117 	0,12498 	1652,7 
15,183 	0,12541 	1662,9 
15,250 	0,12610 	1674,6 
15,317 	0,12679 	1686,4 
15,383 	0,12739 	1696,5 
15,450 	0,12800 	1706,7 
15,517 	0,12852 	1716,8 
15,600 	0,12912 	1728,6 
15,700 	0,12998 	1742,0 
15,783 	0,13067 	1755,5 
15,900 	0,13162 	1770,7 
16,000 	0,13249 	1785,8 
16,083 	0,13326 	1799,3 
16,167 	0,13404 	1812,8 
16,250 	0,13473 	1826,3 
16,350 	0,13551 	1839,8 
16,467 	0,13646 	1854,9 
16,567 	0,13732 	1868,4 
16,650 	0,13792 	1881,9 
16,767 	0,13887 	1897,0 
16,867 	0,13974 	1912,2 
16,950 	0,14051 	1925,7 
17,050 	0,14129 	1939,2 
17,133 	0,14207 	1954,3 
17,233 	0,14284 	1967,8 
17,333 	0,14362 	1981,3 
17,433 	0,14448 	1996,4 
17,533 	0,14517 	2009,9 
17,633 	0,14595 	2023,4 
17,733 	0,14690 	2038,6 
17,817 	0,14759 	2052,0 
17,917 	0,14845 	2065,5 
18,000 	0,14914 	2080,7 
18,100 	0,15001 	2095,8 
18,200 	0,15078 	2109,3 
18,300 	0,15165 	2122,8 
18,400 	0,15242 	2136,3 
18,500 	0,15320 	2149,7 
18,583 	0,15398 	2163,2 
18,683 	0,15484 	2180,1 
18,800 	0,15588 	2198,6 
18,900 	0,15674 	2215,5 
19,017 	0,15769 	2232,3 
19,133 	0,15864 	2249,1 
19,267 	0,15967 	2267,7 
19,400 	0,16071 	2284,5 
19,517 	0,16174 	2303,1 
19,617 	0,16261 	2319,9 
19,733 	0,16364 	2338,4 
19,850 	0,16459 	2355,3 
19,983 	0,16572 	2373,8 
20,100 	0,16658 	2390,7 
20,233 	0,16761 	2409,2 
20,350 	0,16865 	2427,7 
20,467 	0,16969 	2446,3 
20,583 	0,17072 	2464,8 
20,700 	0,17176 	2483,3 
20,833 	0,17279 	2501,9 
20,967 	0,17383 	2520,4 
21,100 	0,17495 	2538,9 
21,217 	0,17599 	2555,8 
21,317 	0,17685 	2572,6 
21,433 	0,17788 	2591,2 
21,583 	0,17909 	2611,4 
21,717 	0,18022 	2631,6 
21,867 	0,18142 	2653,5 
22,017 	0,18263 	2673,7 
22,150 	0,18375 	2693,9 
22,283 	0,18496 	2714,1 
22,417 	0,18608 	2734,4 
22,583 	0,18738 	2754,6 
22,717 	0,18833 	2774,8 
22,883 	0,18971 	2796,7 
23,033 	0,19100 	2818,6 
23,167 	0,19221 	2840,5 
23,317 	0,19351 	2862,4 
23,483 	0,19480 	2886,0 
23,650 	0,19610 	2906,2 
23,783 	0,19730 	2926,4 
23,917 	0,19851 	2948,3 
24,067 	0,19981 	2970,2 
24,217 	0,20102 	2990,4 
24,367 	0,20222 	3010,7 
24,533 	0,20352 	3030,9 
24,683 	0,20481 	3054,5 
24,850 	0,20628 	3078,0 
25,017 	0,20775 	3103,3 
25,217 	0,20922 	3126,9 
25,400 	0,21068 	3150,5 
25,567 	0,21215 	3174,1 
25,733 	0,21362 	3197,7 
25,900 	0,21508 	3221,3 
26,117 	0,21681 	3244,8 
26,300 	0,21828 	3270,1 
26,467 	0,21983 	3293,7 
26,650 	0,22139 	3319,0 
26,867 	0,22311 	3344,2 
27,067 	0,22475 	3367,8 
27,267 	0,22639 	3391,4 
27,467 	0,22812 	3415,0 
27,667 	0,22976 	3438,6 
27,883 	0,23148 	3460,5 
28,100 	0,23321 	3480,7 
28,300 	0,23494 	3507,7 
28,517 	0,23683 	3531,2 
28,750 	0,23865 	3553,1 
28,967 	0,24046 	3573,4 
29,167 	0,24227 	3598,6 
29,383 	0,24408 	3620,5 
29,633 	0,24607 	3639,1 
29,867 	0,24805 	3662,7 
30,083 	0,24995 	3682,9 
30,333 	0,25194 	3701,4 
30,583 	0,25384 	3719,9 
30,800 	0,25582 	3740,2 
31,033 	0,25781 	3760,4 
31,283 	0,25979 	3778,9 
31,517 	0,26178 	3794,1 
31,733 	0,26376 	3812,6 
31,983 	0,26575 	3827,8 
32,233 	0,26782 	3842,9 
32,483 	0,26998 	3861,5 
32,733 	0,27205 	3874,9 
33,000 	0,27412 	3890,1 
33,267 	0,27628 	3903,6 
33,517 	0,27844 	3920,4 
33,783 	0,28068 	3935,6 
34,050 	0,28284 	3947,4 
34,300 	0,28500 	3960,9 
34,550 	0,28715 	3972,7 
34,833 	0,28940 	3981,1 
35,100 	0,29164 	3997,9 
35,367 	0,29397 	4011,4 
35,667 	0,29630 	4019,8 
35,950 	0,29863 	4035,0 
36,217 	0,30105 	4048,5 
36,517 	0,30338 	4055,2 
36,783 	0,30580 	4068,7 
37,067 	0,30821 	4077,1 
37,367 	0,31054 	4085,5 
37,650 	0,31296 	4095,6 
37,933 	0,31538 	4105,7 
38,250 	0,31779 	4114,2 
38,533 	0,32021 	4126,0 
38,817 	0,32263 	4136,1 
39,133 	0,32513 	4141,1 
39,417 	0,32763 	4151,2 
39,717 	0,33022 	4161,3 
40,033 	0,33273 	4168,1 
40,333 	0,33531 	4178,2 
40,650 	0,33790 	4186,6 
40,983 	0,34058 	4191,7 
41,283 	0,34325 	4203,5 
41,617 	0,34593 	4210,2 
41,933 	0,34861 	4216,9 
42,233 	0,35128 	4227,0 
42,583 	0,35404 	4230,4 
42,900 	0,35681 	4240,5 
43,250 	0,35957 	4245,6 
43,600 	0,36233 	4252,3 
43,917 	0,36518 	4262,4 
44,283 	0,36811 	4267,5 
44,617 	0,37096 	4277,6 
44,950 	0,37381 	4282,6 
45,317 	0,37674 	4289,4 
45,650 	0,37968 	4297,8 
46,033 	0,38270 	4302,9 
46,383 	0,38563 	4311,3 
46,733 	0,38857 	4314,7 
47,100 	0,39167 	4323,1 
47,450 	0,39470 	4331,5 
47,833 	0,39772 	4336,6 
48,183 	0,40082 	4345,0 
48,583 	0,40393 	4346,7 
48,950 	0,40704 	4358,5 
49,333 	0,41023 	4363,5 
49,717 	0,41342 	4370,3 
50,100 	0,41670 	4377,0 
50,500 	0,41990 	4380,4 
50,883 	0,42326 	4390,5 
51,300 	0,42654 	4392,2 
51,667 	0,42982 	4402,3 
52,083 	0,43310 	4405,6 
52,467 	0,43656 	4415,7 
52,883 	0,43992 	4417,4 
53,283 	0,44329 	4425,9 
53,717 	0,44674 	4430,9 
54,133 	0,45019 	4437,6 
54,550 	0,45365 	4442,7 
54,967 	0,45718 	4449,4 
55,383 	0,46072 	4452,8 
55,817 	0,46426 	4459,5 
56,250 	0,46789 	4464,6 
56,700 	0,47160 	4476,4 
57,133 	0,47522 	4478,1 
57,567 	0,47902 	4484,8 
58,033 	0,48282 	4489,9 
58,483 	0,48662 	4496,6 
58,967 	0,49041 	4498,3 
59,400 	0,49421 	4510,1 
59,883 	0,49801 	4510,1 
60,317 	0,50189 	4521,9 
60,800 	0,50578 	4523,6 
61,267 	0,50975 	4532,0 
61,767 	0,51380 	4533,7 
62,233 	0,51777 	4538,7 
62,700 	0,52174 	4547,2 
63,200 	0,52589 	4552,2 
63,683 	0,52994 	4558,9 
64,183 	0,53391 	4558,9 
64,667 	0,53806 	4569,1 
65,167 	0,54211 	4572,4 
65,667 	0,54643 	4579,2 
66,167 	0,55049 	4584,2 
66,667 	0,55463 	4585,9 
67,167 	0,55894 	4597,7 
67,667 	0,56300 	4599,4 
68,167 	0,56732 	4606,1 
68,667 	0,57137 	4609,5 
69,167 	0,57552 	4616,2 
69,667 	0,57966 	4623,0 
70,167 	0,58371 	4624,7 
70,667 	0,58812 	4634,8 
71,167 	0,59209 	4633,1 
71,667 	0,59640 	4641,5 
72,167 	0,60054 	4646,6 
72,667 	0,60469 	4649,9 
73,167 	0,60900 	4658,3 
73,667 	0,61306 	4658,3 
74,167 	0,61729 	4665,1 
74,667 	0,62126 	4668,5 
75,167 	0,62549 	4675,2 
75,667 	0,62972 	4678,6 
76,167 	0,63386 	4680,2 
76,667 	0,63809 	4688,7 
77,167 	0,64206 	4688,7 
77,667 	0,64646 	4700,5 
78,167 	0,65060 	4703,8 
78,667 	0,65475 	4705,5 
79,167 	0,65898 	4710,6 
79,667 	0,66295 	4710,6 
80,167 	0,66726 	4720,7 
80,667 	0,67132 	4722,4 
81,167 	0,67555 	4727,4 
81,667 	0,67969 	4730,8 
82,167 	0,68383 	4735,8 
82,667 	0,68815 	4740,9 
83,167 	0,69212 	4742,6 
83,667 	0,69644 	4749,3 
84,167 	0,70049 	4751,0 
84,667 	0,70472 	4756,1 
85,167 	0,70886 	4761,1 
85,667 	0,71292 	4762,8 
86,167 	0,71732 	4771,2 
86,667 	0,72129 	4771,2 
87,167 	0,72552 	4776,3 
87,667 	0,72966 	4781,3 
88,167 	0,73389 	4783,0 
88,667 	0,73821 	4791,4 
89,167 	0,74218 	4789,8 
89,667 	0,74650 	4798,2 
90,167 	0,75038 	4798,2 
90,667 	0,75469 	4804,9 
91,167 	0,75884 	4810,0 
91,667 	0,76298 	4810,0 
92,167 	0,76730 	4818,4 
92,667 	0,77118 	4816,7 
93,167 	0,77558 	4825,1 
93,667 	0,77972 	4828,5 
94,167 	0,78395 	4830,2 
94,667 	0,78810 	4833,6 
95,167 	0,79207 	4836,9 
95,667 	0,79638 	4843,7 
96,167 	0,80044 	4845,4 
96,667 	0,80475 	4850,4 
97,167 	0,80890 	4853,8 
97,667 	0,81304 	4855,5 
98,167 	0,81727 	4865,6 
98,667 	0,82133 	4863,9 
99,167 	0,82564 	4868,9 
99,667 	0,82970 	4872,3 
100,17 	0,83384 	4874,0 
100,67 	0,83798 	4880,7 
101,17 	0,84204 	4880,7 
101,67 	0,84644 	4889,2 
102,17 	0,85041 	4887,5 
102,67 	0,85473 	4894,2 
103,17 	0,85878 	4895,9 
103,67 	0,86301 	4899,3 
104,17 	0,86733 	4904,3 
104,67 	0,87139 	4906,0 
105,17 	0,87561 	4911,1 
105,67 	0,87959 	4911,1 
106,17 	0,88381 	4916,1 
106,67 	0,88796 	4921,2 
107,17 	0,89219 	4922,9 
107,67 	0,89642 	4927,9 
108,17 	0,90039 	4927,9 
108,67 	0,90479 	4936,3 
109,17 	0,90884 	4938,0 
109,67 	0,91307 	4939,7 
110,17 	0,91722 	4946,4 
110,67 	0,92127 	4944,8 
111,17 	0,92559 	4954,9 
111,67 	0,92956 	4951,5 
112,17 	0,93387 	4959,9 
112,67 	0,93802 	4959,9 
113,17 	0,94216 	4963,3 
113,67 	0,94639 	4968,3 
114,17 	0,95045 	4968,3 
114,67 	0,95485 	4975,1 
115,17 	0,95890 	4976,8 
115,67 	0,96305 	4978,5 
116,17 	0,96710 	4983,5 
116,67 	0,97133 	4985,2 
117,17 	0,97565 	4990,2 
117,67 	0,97962 	4990,2 
118,17 	0,98393 	4998,7 
118,67 	0,98782 	4998,7 
119,17 	0,99222 	5003,7 
119,67 	0,99654 	5010,5 
120,17 	1,0005 	5007,1 
120,67 	1,0048 	5015,5 
121,17 	1,0087 	5013,8 
121,67 	1,0130 	5018,9 
122,17 	1,0172 	5023,9 
122,67 	1,0214 	5023,9 
123,17 	1,0255 	5029,0 
123,67 	1,0296 	5029,0 
124,17 	1,0339 	5037,4 
124,67 	1,0381 	5037,4 
125,17 	1,0423 	5040,8 
125,67 	1,0464 	5044,2 
126,17 	1,0505 	5044,2 
126,67 	1,0547 	5052,6 
127,17 	1,0587 	5050,9 
127,67 	1,0631 	5057,6 
128,17 	1,0671 	5059,3 
128,67 	1,0714 	5062,7 
129,17 	1,0755 	5066,1 
129,67 	1,0797 	5067,7 
130,17 	1,0840 	5072,8 
130,67 	1,0880 	5071,1 
131,17 	1,0923 	5076,2 
131,67 	1,0963 	5079,5 
132,17 	1,1005 	5081,2 
132,67 	1,1048 	5089,6 
133,17 	1,1087 	5086,3 
133,67 	1,1131 	5094,7 
134,17 	1,1171 	5093,0 
134,67 	1,1213 	5099,8 
135,17 	1,1257 	5104,8 
135,67 	1,1297 	5103,1 
136,17 	1,1339 	5109,9 
136,67 	1,1378 	5106,5 
137,17 	1,1422 	5114,9 
137,67 	1,1463 	5116,6 
138,17 	1,1506 	5118,3 
138,67 	1,1547 	5121,7 
139,17 	1,1587 	5123,3 
139,67 	1,1631 	5133,4 
140,17 	1,1672 	5130,1 
140,67 	1,1714 	5133,4 
141,17 	1,1756 	5138,5 
141,67 	1,1796 	5136,8 
142,17 	1,1838 	5145,2 
142,67 	1,1879 	5143,6 
143,17 	1,1923 	5150,3 
143,67 	1,1963 	5150,3 
144,17 	1,2005 	5155,3 
144,67 	1,2047 	5158,7 
145,17 	1,2088 	5158,7 
145,67 	1,2132 	5165,5 
146,17 	1,2171 	5163,8 
146,67 	1,2214 	5168,8 
147,17 	1,2254 	5170,5 
147,67 	1,2296 	5173,9 
148,17 	1,2339 	5180,6 
148,67 	1,2379 	5178,9 
149,17 	1,2423 	5185,7 
149,67 	1,2462 	5184,0 
150,17 	1,2505 	5187,4 
150,67 	1,2548 	5194,1 
151,17 	1,2589 	5194,1 
151,67 	1,2631 	5199,2 
152,17 	1,2670 	5195,8 
152,67 	1,2714 	5205,9 
153,17 	1,2755 	5205,9 
153,67 	1,2797 	5209,3 
154,17 	1,2839 	5212,6 
154,67 	1,2879 	5210,9 
155,17 	1,2922 	5221,1 
155,67 	1,2963 	5221,1 
156,17 	1,3006 	5222,7 
156,67 	1,3047 	5224,4 
157,17 	1,3088 	5227,8 
157,67 	1,3130 	5231,2 
158,17 	1,3170 	5231,2 
158,67 	1,3215 	5239,6 
159,17 	1,3255 	5236,2 
159,67 	1,3297 	5241,3 
160,17 	1,3337 	5249,7 
160,67 	1,3380 	5246,3 
161,17 	1,3424 	5254,8 
161,67 	1,3463 	5251,4 
162,17 	1,3506 	5256,4 
162,67 	1,3546 	5258,1 
163,17 	1,3588 	5261,5 
163,67 	1,3631 	5266,5 
164,17 	1,3672 	5264,9 
164,67 	1,3715 	5271,6 
165,17 	1,3753 	5269,9 
165,67 	1,3798 	5275,0 
166,17 	1,3839 	5278,3 
166,67 	1,3880 	5280,0 
167,17 	1,3924 	5285,1 
167,67 	1,3962 	5283,4 
168,17 	1,4006 	5290,1 
168,67 	1,4046 	5291,8 
169,17 	1,4088 	5295,2 
169,67 	1,4130 	5298,6 
170,17 	1,4171 	5296,9 
170,67 	1,4214 	5305,3 
171,17 	1,4255 	5303,6 
171,67 	1,4298 	5308,7 
172,17 	1,4339 	5310,3 
172,67 	1,4380 	5310,3 
173,17 	1,4422 	5317,1 
173,67 	1,4462 	5315,4 
174,17 	1,4506 	5323,8 
174,67 	1,4546 	5320,5 
175,17 	1,4588 	5325,5 
175,67 	1,4630 	5328,9 
176,17 	1,4671 	5330,6 
176,67 	1,4715 	5337,3 
177,17 	1,4755 	5333,9 
177,67 	1,4797 	5339,0 
178,17 	1,4838 	5340,7 
178,67 	1,4880 	5344,0 
179,17 	1,4922 	5349,1 
179,67 	1,4963 	5347,4 
180,17 	1,5006 	5354,2 
180,67 	1,5045 	5352,5 
181,17 	1,5089 	5359,2 
181,67 	1,5131 	5362,6 
182,17 	1,5172 	5360,9 
182,67 	1,5215 	5367,6 
183,17 	1,5254 	5364,3 
183,67 	1,5298 	5372,7 
184,17 	1,5338 	5372,7 
184,67 	1,5380 	5376,1 
185,17 	1,5422 	5379,4 
185,67 	1,5462 	5379,4 
186,17 	1,5506 	5386,2 
186,67 	1,5546 	5384,5 
187,17 	1,5589 	5389,5 
187,67 	1,5630 	5389,5 
188,17 	1,5671 	5392,9 
188,67 	1,5714 	5399,6 
189,17 	1,5754 	5396,3 
189,67 	1,5798 	5404,7 
190,17 	1,5838 	5404,7 
190,67 	1,5880 	5406,4 
191,17 	1,5922 	5409,7 
191,67 	1,5963 	5411,4 
192,17 	1,6007 	5418,2 
192,67 	1,6047 	5414,8 
193,17 	1,6089 	5421,5 
193,67 	1,6129 	5419,9 
194,17 	1,6171 	5424,9 
194,67 	1,6213 	5430,0 
195,17 	1,6255 	5426,6 
195,67 	1,6298 	5435,0 
196,17 	1,6337 	5431,6 
196,67 	1,6381 	5438,4 
197,17 	1,6422 	5441,8 
197,67 	1,6464 	5443,4 
198,17 	1,6506 	5445,1 
198,67 	1,6546 	5445,1 
199,17 	1,6589 	5451,9 
199,67 	1,6628 	5453,6 
200,17 	1,6673 	5455,2 
200,67 	1,6713 	5458,6 
201,17 	1,6754 	5460,3 
201,67 	1,6798 	5470,4 
202,17 	1,6837 	5465,3 
202,67 	1,6881 	5468,7 
203,17 	1,6922 	5470,4 
203,67 	1,6963 	5473,8 
204,17 	1,7005 	5478,8 
204,67 	1,7045 	5475,5 
205,17 	1,7089 	5483,9 
205,67 	1,7129 	5480,5 
206,17 	1,7172 	5488,9 
206,67 	1,7213 	5488,9 
207,17 	1,7255 	5490,6 
207,67 	1,7298 	5497,4 
208,17 	1,7338 	5494,0 
208,67 	1,7381 	5499,0 
209,17 	1,7420 	5497,4 
209,67 	1,7463 	5502,4 
210,17 	1,7505 	5507,5 
210,67 	1,7546 	5505,8 
211,17 	1,7589 	5512,5 
211,67 	1,7629 	5510,8 
212,17 	1,7672 	5515,9 
212,67 	1,7713 	5519,3 
213,17 	1,7756 	5519,3 
213,67 	1,7798 	5524,3 
214,17 	1,7837 	5520,9 
214,67 	1,7881 	5531,1 
215,17 	1,7921 	5527,7 
215,67 	1,7964 	5534,4 
216,17 	1,8005 	5534,4 
216,67 	1,8046 	5536,1 
217,17 	1,8089 	5542,8 
217,67 	1,8129 	5541,2 
218,17 	1,8173 	5546,2 
218,67 	1,8213 	5546,2 
219,17 	1,8255 	5547,9 
219,67 	1,8296 	5551,3 
220,17 	1,8337 	5553,0 
220,67 	1,8381 	5559,7 
221,17 	1,8420 	5556,3 
221,67 	1,8463 	5564,7 
222,17 	1,8503 	5564,7 
222,67 	1,8546 	5566,4 
223,17 	1,8590 	5573,2 
223,67 	1,8629 	5569,8 
224,17 	1,8672 	5576,5 
224,67 	1,8712 	5573,2 
225,17 	1,8755 	5579,9 
225,67 	1,8797 	5583,3 
226,17 	1,8838 	5583,3 
226,67 	1,8880 	5588,3 
227,17 	1,8920 	5585,0 
227,67 	1,8964 	5593,4 
228,17 	1,9005 	5593,4 
228,67 	1,9048 	5596,8 
229,17 	1,9089 	5600,1 
229,67 	1,9129 	5598,4 
230,17 	1,9172 	5606,9 
230,67 	1,9212 	5605,2 
231,17 	1,9256 	5608,5 
231,67 	1,9296 	5611,9 
232,17 	1,9338 	5611,9 
232,67 	1,9380 	5617,0 
233,17 	1,9421 	5617,0 
233,67 	1,9465 	5623,7 
234,17 	1,9505 	5622,0 
234,67 	1,9547 	5625,4 
235,17 	1,9587 	5628,8 
235,67 	1,9629 	5628,8 
236,17 	1,9673 	5637,2 
236,67 	1,9712 	5632,1 
237,17 	1,9755 	5638,9 
237,67 	1,9796 	5638,9 
238,17 	1,9838 	5643,9 
238,67 	1,9882 	5647,3 
239,17 	1,9921 	5645,6 
239,67 	1,9964 	5649,0 
240,17 	2,0003 	5650,7 
240,67 	2,0046 	5654,0 
241,17 	2,0088 	5659,1 
241,67 	2,0130 	5659,1 
242,17 	2,0172 	5662,5 
242,67 	2,0212 	5662,5 
243,17 	2,0256 	5670,9 
243,67 	2,0297 	5669,2 
244,17 	2,0339 	5670,9 
244,67 	2,0380 	5675,9 
245,17 	2,0421 	5674,3 
245,67 	2,0463 	5681,0 
246,17 	2,0504 	5677,6 
246,67 	2,0547 	5686,0 
247,17 	2,0588 	5684,4 
247,67 	2,0630 	5687,7 
248,17 	2,0672 	5692,8 
248,67 	2,0713 	5692,8 
249,17 	2,0757 	5697,8 
249,67 	2,0796 	5696,2 
250,17 	2,0839 	5699,5 
250,67 	2,0879 	5702,9 
251,17 	2,0921 	5702,9 
251,67 	2,0964 	5709,6 
252,17 	2,1004 	5707,9 
252,67 	2,1048 	5714,7 
253,17 	2,1087 	5714,7 
253,67 	2,1130 	5716,4 
254,17 	2,1173 	5721,4 
254,67 	2,1213 	5721,4 
255,17 	2,1256 	5726,5 
255,67 	2,1295 	5723,1 
256,17 	2,1338 	5731,5 
256,67 	2,1379 	5731,5 
257,17 	2,1421 	5733,2 
257,67 	2,1464 	5738,3 
258,17 	2,1503 	5734,9 
258,67 	2,1547 	5743,3 
259,17 	2,1588 	5743,3 
259,67 	2,1631 	5743,3 
260,17 	2,1672 	5746,7 
260,67 	2,1713 	5748,4 
261,17 	2,1755 	5753,4 
261,67 	2,1795 	5753,4 
262,17 	2,1839 	5756,8 
262,67 	2,1880 	5758,5 
263,17 	2,1921 	5760,2 
263,67 	2,1962 	5768,6 
264,17 	2,2004 	5765,2 
264,67 	2,2048 	5772,0 
265,17 	2,2088 	5768,6 
265,67 	2,2130 	5773,7 
266,17 	2,2171 	5777,0 
266,67 	2,2213 	5775,3 
267,17 	2,2255 	5782,1 
267,67 	2,2296 	5780,4 
268,17 	2,2339 	5787,1 
268,67 	2,2378 	5785,4 
269,17 	2,2422 	5790,5 
269,67 	2,2464 	5793,9 
270,17 	2,2505 	5793,9 
270,67 	2,2548 	5798,9 
271,17 	2,2586 	5795,6 
271,67 	2,2630 	5802,3 
272,17 	2,2671 	5804,0 
272,67 	2,2713 	5805,7 
273,17 	2,2755 	5809,0 
273,67 	2,2795 	5809,0 
274,17 	2,2838 	5815,8 
274,67 	2,2879 	5814,1 
275,17 	2,2922 	5817,5 
275,67 	2,2964 	5820,8 
276,17 	2,3004 	5820,8 
276,67 	2,3046 	5827,6 
277,17 	2,3086 	5824,2 
277,67 	2,3131 	5832,6 
278,17 	2,3171 	5829,3 
278,67 	2,3213 	5834,3 
279,17 	2,3255 	5837,7 
279,67 	2,3296 	5837,7 
280,17 	2,3340 	5842,7 
280,67 	2,3380 	5841,0 
281,17 	2,3422 	5846,1 
281,67 	2,3462 	5846,1 
282,17 	2,3504 	5849,5 
282,67 	2,3547 	5854,5 
283,17 	2,3588 	5852,8 
283,67 	2,3631 	5859,6 
284,17 	2,3671 	5856,2 
284,67 	2,3713 	5862,9 
285,17 	2,3756 	5868,0 
285,67 	2,3797 	5866,3 
286,17 	2,3839 	5871,4 
286,67 	2,3879 	5866,3 
287,17 	2,3922 	5876,4 
287,67 	2,3962 	5876,4 
288,17 	2,4005 	5878,1 
288,67 	2,4047 	5881,5 
289,17 	2,4087 	5881,5 
289,67 	2,4131 	5888,2 
290,17 	2,4171 	5886,5 
290,67 	2,4214 	5891,6 
291,17 	2,4255 	5891,6 
291,67 	2,4296 	5893,3 
292,17 	2,4339 	5896,6 
292,67 	2,4378 	5898,3 
293,17 	2,4422 	5903,4 
293,67 	2,4463 	5901,7 
294,17 	2,4505 	5905,1 
294,67 	2,4546 	5908,4 
295,17 	2,4588 	5910,1 
295,67 	2,4631 	5915,2 
296,17 	2,4671 	5913,5 
296,67 	2,4714 	5916,9 
297,17 	2,4754 	5916,9 
297,67 	2,4796 	5921,9 
298,17 	2,4838 	5927,0 
298,67 	2,4879 	5923,6 
299,17 	2,4922 	5932,0 
299,67 	2,4962 	5927,0 
300,17 	2,5005 	5933,7 
300,67 	2,5047 	5937,1 
301,17 	2,5089 	5937,1 
301,67 	2,5131 	5940,4 
302,17 	2,5171 	5938,8 
302,67 	2,5213 	5945,5 
303,17 	2,5254 	5947,2 
303,67 	2,5297 	5947,2 
304,17 	2,5338 	5950,6 
304,67 	2,5379 	5950,6 
305,17 	2,5423 	5962,3 
305,67 	2,5462 	5955,6 
306,17 	2,5505 	5960,7 
306,67 	2,5547 	5964,0 
307,17 	2,5587 	5964,0 
307,67 	2,5630 	5967,4 
308,17 	2,5670 	5967,4 
308,67 	2,5714 	5974,1 
309,17 	2,5754 	5970,8 
309,67 	2,5796 	5975,8 
310,17 	2,5838 	5979,2 
310,67 	2,5880 	5980,9 
311,17 	2,5923 	5985,9 
311,67 	2,5963 	5982,6 
312,17 	2,6005 	5987,6 
312,67 	2,6045 	5987,6 
313,17 	2,6087 	5991,0 
313,67 	2,6130 	5996,0 
314,17 	2,6171 	5994,4 
314,67 	2,6214 	6001,1 
315,17 	2,6254 	5997,7 
315,67 	2,6297 	6002,8 
316,17 	2,6338 	6006,2 
316,67 	2,6381 	6004,5 
317,17 	2,6422 	6009,5 
317,67 	2,6462 	6007,8 
318,17 	2,6505 	6017,9 
318,67 	2,6546 	6014,6 
319,17 	2,6589 	6019,6 
319,67 	2,6630 	6021,3 
320,17 	2,6671 	6021,3 
320,67 	2,6714 	6028,1 
321,17 	2,6754 	6026,4 
321,67 	2,6798 	6029,7 
322,17 	2,6838 	6029,7 
322,67 	2,6880 	6033,1 
323,17 	2,6921 	6036,5 
323,67 	2,6962 	6038,2 
324,17 	2,7006 	6043,2 
324,67 	2,7045 	6039,8 
325,17 	2,7088 	6046,6 
325,67 	2,7128 	6048,3 
326,17 	2,7171 	6050,0 
326,67 	2,7214 	6055,0 
327,17 	2,7254 	6051,6 
327,67 	2,7297 	6056,7 
328,17 	2,7337 	6056,7 
328,67 	2,7379 	6060,1 
329,17 	2,7422 	6063,4 
329,67 	2,7463 	6063,4 
330,17 	2,7505 	6068,5 
330,67 	2,7545 	6066,8 
331,17 	2,7588 	6073,5 
331,67 	2,7630 	6073,5 
332,17 	2,7672 	6075,2 
332,67 	2,7714 	6078,6 
333,17 	2,7753 	6076,9 
333,67 	2,7797 	6085,3 
334,17 	2,7837 	6082,0 
334,67 	2,7880 	6087,0 
335,17 	2,7921 	6090,4 
335,67 	2,7963 	6090,4 
336,17 	2,8005 	6095,4 
336,67 	2,8046 	6093,8 
337,17 	2,8089 	6098,8 
337,67 	2,8130 	6098,8 
338,17 	2,8172 	6100,5 
338,67 	2,8212 	6105,6 
339,17 	2,8254 	6103,9 
339,67 	2,8298 	6112,3 
340,17 	2,8337 	6107,2 
340,67 	2,8380 	6114,0 
341,17 	2,8421 	6114,0 
341,67 	2,8463 	6115,7 
342,17 	2,8506 	6120,7 
342,67 	2,8546 	6119,0 
343,17 	2,8588 	6122,4 
343,67 	2,8628 	6122,4 
344,17 	2,8671 	6129,1 
344,67 	2,8713 	6130,8 
345,17 	2,8755 	6130,8 
345,67 	2,8796 	6134,2 
346,17 	2,8836 	6134,2 
346,67 	2,8880 	6142,6 
347,17 	2,8922 	6142,6 
347,67 	2,8964 	6142,6 
348,17 	2,9005 	6146,0 
348,67 	2,9045 	6146,0 
349,17 	2,9088 	6152,7 
349,67 	2,9129 	6151,0 
350,17 	2,9172 	6156,1 
350,67 	2,9212 	6156,1 
351,17 	2,9254 	6157,8 
351,67 	2,9297 	6162,8 
352,17 	2,9337 	6159,5 
352,67 	2,9381 	6166,2 
353,17 	2,9421 	6164,5 
353,67 	2,9463 	6167,9 
354,17 	2,9504 	6171,3 
354,67 	2,9546 	6171,3 
355,17 	2,9589 	6176,3 
355,67 	2,9628 	6176,3 
356,17 	2,9672 	6181,4 
356,67 	2,9712 	6181,4 
357,17 	2,9755 	6183,1 
357,67 	2,9798 	6188,1 
358,17 	2,9838 	6186,4 
358,67 	2,9881 	6191,5 
359,17 	2,9919 	6188,1 
359,67 	2,9963 	6196,5 
360,17 	3,0005 	6196,5 
360,67 	3,0046 	6198,2 
361,17 	3,0089 	6203,3 
361,67 	3,0128 	6199,9 
362,17 	3,0172 	6206,6 
362,67 	3,0213 	6208,3 
363,17 	3,0255 	6208,3 
363,67 	3,0297 	6211,7 
364,17 	3,0337 	6210,0 
364,67 	3,0379 	6216,7 
365,17 	3,0420 	6216,7 
365,67 	3,0464 	6220,1 
366,17 	3,0504 	6221,8 
366,67 	3,0546 	6223,5 
367,17 	3,0588 	6231,9 
367,67 	3,0629 	6226,9 
368,17 	3,0673 	6233,6 
368,67 	3,0713 	6230,2 
369,17 	3,0755 	6235,3 
369,67 	3,0795 	6238,6 
370,17 	3,0837 	6237,0 
370,67 	3,0881 	6243,7 
371,17 	3,0921 	6242,0 
371,67 	3,0963 	6247,1 
372,17 	3,1003 	6245,4 
372,67 	3,1047 	6250,4 
373,17 	3,1089 	6253,8 
373,67 	3,1129 	6252,1 
374,17 	3,1173 	6258,9 
374,67 	3,1211 	6253,8 
375,17 	3,1255 	6260,5 
375,67 	3,1296 	6263,9 
376,17 	3,1337 	6263,9 
376,67 	3,1380 	6269,0 
377,17 	3,1420 	6267,3 
377,67 	3,1463 	6272,3 
378,17 	3,1504 	6274,0 
378,67 	3,1547 	6275,7 
379,17 	3,1589 	6277,4 
379,67 	3,1629 	6277,4 
380,17 	3,1671 	6282,5 
380,67 	3,1711 	6280,8 
381,17 	3,1755 	6287,5 
381,67 	3,1796 	6287,5 
382,17 	3,1837 	6289,2 
382,67 	3,1879 	6292,6 
383,17 	3,1921 	6294,2 
383,67 	3,1964 	6297,6 
384,17 	3,2005 	6295,9 
384,67 	3,2046 	6299,3 
385,17 	3,2087 	6302,7 
385,67 	3,2129 	6304,4 
386,17 	3,2172 	6309,4 
386,67 	3,2212 	6306,0 
387,17 	3,2256 	6312,8 
387,67 	3,2294 	6309,4 
388,17 	3,2338 	6316,1 
388,67 	3,2381 	6319,5 
389,17 	3,2421 	6317,8 
389,67 	3,2464 	6322,9 
390,17 	3,2503 	6321,2 
390,67 	3,2547 	6327,9 
391,17 	3,2587 	6329,6 
391,67 	3,2629 	6329,6 
392,17 	3,2672 	6334,7 
392,67 	3,2711 	6331,3 
393,17 	3,2756 	6339,7 
393,67 	3,2796 	6336,4 
394,17 	3,2838 	6339,7 
394,67 	3,2880 	6341,4 
395,17 	3,2920 	6343,1 
395,67 	3,2963 	6348,2 
396,17 	3,3003 	6346,5 
396,67 	3,3047 	6353,2 
397,17 	3,3088 	6353,2 
397,67 	3,3129 	6353,2 
398,17 	3,3172 	6358,3 
398,67 	3,3212 	6358,3 
399,17 	3,3256 	6365,0 
399,67 	3,3296 	6361,6 
400,17 	3,3338 	6365,0 
400,67 	3,3379 	6366,7 
401,17 	3,3420 	6368,4 
401,67 	3,3463 	6375,1 
402,17 	3,3504 	6370,1 
402,67 	3,3547 	6378,5 
403,17 	3,3587 	6375,1 
403,67 	3,3630 	6380,2 
404,17 	3,3672 	6385,2 
404,67 	3,3714 	6383,5 
405,17 	3,3756 	6386,9 
405,67 	3,3795 	6383,5 
406,17 	3,3838 	6390,3 
406,67 	3,3878 	6392,0 
407,17 	3,3922 	6393,6 
407,67 	3,3963 	6395,3 
408,17 	3,4004 	6395,3 
408,67 	3,4048 	6407,1 
409,17 	3,4087 	6402,1 
409,67 	3,4130 	6403,8 
410,17 	3,4172 	6407,1 
410,67 	3,4212 	6407,1 
411,17 	3,4255 	6410,5 
411,67 	3,4294 	6410,5 
412,17 	3,4338 	6417,2 
412,67 	3,4379 	6415,5 
413,17 	3,4421 	6420,6 
413,67 	3,4463 	6422,3 
414,17 	3,4504 	6422,3 
414,67 	3,4547 	6427,3 
415,17 	3,4587 	6424,0 
415,67 	3,4630 	6429,0 
416,17 	3,4670 	6430,7 
416,67 	3,4712 	6432,4 
417,17 	3,4754 	6437,4 
417,67 	3,4795 	6435,8 
418,17 	3,4838 	6440,8 
418,67 	3,4878 	6439,1 
419,17 	3,4921 	6444,2 
419,67 	3,4963 	6449,2 
420,17 	3,5005 	6447,6 
420,67 	3,5047 	6452,6 
421,17 	3,5086 	6449,2 
421,67 	3,5130 	6457,7 
422,17 	3,5170 	6456,0 
422,67 	3,5213 	6457,7 
423,17 	3,5255 	6461,0 
423,67 	3,5295 	6459,4 
424,17 	3,5339 	6467,8 
424,67 	3,5378 	6464,4 
425,17 	3,5422 	6469,5 
425,67 	3,5463 	6469,5 
426,17 	3,5504 	6471,1 
426,67 	3,5546 	6476,2 
427,17 	3,5586 	6474,5 
427,67 	3,5630 	6481,3 
428,17 	3,5670 	6477,9 
428,67 	3,5712 	6482,9 
429,17 	3,5753 	6488,0 
429,67 	3,5795 	6486,3 
430,17 	3,5839 	6491,4 
430,67 	3,5879 	6488,0 
431,17 	3,5921 	6493,0 
431,67 	3,5962 	6494,7 
432,17 	3,6003 	6496,4 
432,67 	3,6047 	6501,5 
433,17 	3,6087 	6498,1 
433,67 	3,6130 	6504,8 
434,17 	3,6170 	6503,2 
434,67 	3,6213 	6508,2 
435,17 	3,6255 	6509,9 
435,67 	3,6297 	6511,6 
436,17 	3,6339 	6514,9 
436,67 	3,6378 	6511,6 
437,17 	3,6422 	6520,0 
437,67 	3,6462 	6518,3 
438,17 	3,6505 	6521,7 
438,67 	3,6546 	6525,1 
439,17 	3,6587 	6523,4 
439,67 	3,6630 	6530,1 
440,17 	3,6671 	6528,4 
440,67 	3,6714 	6531,8 
441,17 	3,6754 	6533,5 
441,67 	3,6796 	6533,5 
442,17 	3,6837 	6538,5 
442,67 	3,6878 	6536,8 
443,17 	3,6923 	6547,0 
443,67 	3,6961 	6541,9 
444,17 	3,7005 	6547,0 
444,67 	3,7046 	6547,0 
445,17 	3,7087 	6548,6 
445,67 	3,7131 	6555,4 
446,17 	3,7171 	6552,0 
446,67 	3,7213 	6555,4 
447,17 	3,7253 	6555,4 
447,67 	3,7296 	6560,4 
448,17 	3,7338 	6563,8 
448,67 	3,7379 	6562,1 
449,17 	3,7421 	6567,2 
449,67 	3,7461 	6563,8 
450,17 	3,7505 	6572,2 
450,67 	3,7547 	6573,9 
451,17 	3,7588 	6572,2 
451,67 	3,7630 	6577,3 
452,17 	3,7670 	6573,9 
452,67 	3,7713 	6582,3 
453,17 	3,7754 	6580,7 
453,67 	3,7797 	6585,7 
454,17 	3,7837 	6585,7 
454,67 	3,7879 	6587,4 
455,17 	3,7922 	6592,4 
455,67 	3,7962 	6589,1 
456,17 	3,8006 	6594,1 
456,67 	3,8046 	6594,1 
457,17 	3,8088 	6597,5 
457,67 	3,8129 	6600,9 
458,17 	3,8170 	6600,9 
458,67 	3,8214 	6607,6 
459,17 	3,8253 	6604,2 
459,67 	3,8297 	6607,6 
460,17 	3,8337 	6609,3 
460,67 	3,8379 	6609,3 
461,17 	3,8423 	6616,0 
461,67 	3,8462 	6612,7 
462,17 	3,8505 	6617,7 
462,67 	3,8544 	6617,7 
463,17 	3,8587 	6622,8 
463,67 	3,8630 	6624,5 
464,17 	3,8670 	6624,5 
464,67 	3,8713 	6631,2 
465,17 	3,8752 	6626,1 
465,67 	3,8796 	6634,6 
466,17 	3,8838 	6634,6 
466,67 	3,8880 	6634,6 
467,17 	3,8921 	6636,2 
467,67 	3,8961 	6636,2 
468,17 	3,9004 	6643,0 
468,67 	3,9045 	6641,3 
469,17 	3,9089 	6644,7 
469,67 	3,9129 	6646,4 
470,17 	3,9170 	6648,0 
470,67 	3,9213 	6656,5 
471,17 	3,9254 	6651,4 
471,67 	3,9297 	6656,5 
472,17 	3,9338 	6656,5 
472,67 	3,9379 	6658,2 
473,17 	3,9420 	6663,2 
473,67 	3,9462 	6661,5 
474,17 	3,9505 	6668,3 
474,67 	3,9545 	6664,9 
475,17 	3,9588 	6669,9 
475,67 	3,9628 	6669,9 
476,17 	3,9672 	6673,3 
476,67 	3,9714 	6675,0 
477,17 	3,9754 	6673,3 
477,67 	3,9797 	6680,1 
478,17 	3,9836 	6678,4 
478,67 	3,9880 	6681,7 
479,17 	3,9921 	6685,1 
479,67 	3,9962 	6685,1 
480,17 	4,0005 	6690,2 
480,67 	4,0044 	6686,8 
481,17 	4,0088 	6693,5 
481,67 	4,0129 	6693,5 
482,17 	4,0172 	6696,9 
482,67 	4,0213 	6698,6 
483,17 	4,0253 	6696,9 
483,67 	4,0296 	6705,3 
484,17 	4,0336 	6702,0 
484,67 	4,0380 	6708,7 
485,17 	4,0421 	6707,0 
485,67 	4,0462 	6708,7 
486,17 	4,0504 	6712,1 
486,67 	4,0545 	6712,1 
487,17 	4,0589 	6717,1 
487,67 	4,0630 	6715,4 
488,17 	4,0671 	6718,8 
488,67 	4,0712 	6720,5 
489,17 	4,0754 	6722,2 
489,67 	4,0797 	6727,2 
490,17 	4,0837 	6723,9 
490,67 	4,0880 	6730,6 
491,17 	4,0919 	6730,6 
491,67 	4,0963 	6732,3 
492,17 	4,1006 	6737,3 
492,67 	4,1046 	6735,6 
493,17 	4,1089 	6740,7 
493,67 	4,1128 	6737,3 
494,17 	4,1171 	6744,1 
494,67 	4,1212 	6744,1 
495,17 	4,1254 	6745,8 
495,67 	4,1297 	6749,1 
496,17 	4,1336 	6747,4 
496,67 	4,1380 	6754,2 
497,17 	4,1421 	6752,5 
497,67 	4,1463 	6755,9 
498,17 	4,1505 	6759,2 
498,67 	4,1545 	6759,2 
499,17 	4,1588 	6764,3 
499,67 	4,1628 	6760,9 
500,17 	4,1671 	6767,7 
500,67 	4,1712 	6769,3 
501,17 	4,1754 	6767,7 
501,67 	4,1796 	6772,7 
502,17 	4,1837 	6772,7 
502,67 	4,1880 	6777,8 
503,17 	4,1921 	6776,1 
503,67 	4,1963 	6779,5 
504,17 	4,2004 	6779,5 
504,67 	4,2045 	6781,1 
505,17 	4,2088 	6789,6 
505,67 	4,2128 	6782,8 
506,17 	4,2172 	6789,6 
506,67 	4,2212 	6787,9 
507,17 	4,2254 	6791,2 
507,67 	4,2297 	6798,0 
508,17 	4,2338 	6794,6 
508,67 	4,2380 	6798,0 
509,17 	4,2420 	6796,3 
509,67 	4,2462 	6803,0 
510,17 	4,2503 	6803,0 
510,67 	4,2547 	6804,7 
511,17 	4,2587 	6806,4 
511,67 	4,2628 	6806,4 
512,17 	4,2672 	6816,5 
512,67 	4,2712 	6813,1 
513,17 	4,2755 	6813,1 
513,67 	4,2797 	6818,2 
514,17 	4,2837 	6816,5 
514,67 	4,2879 	6821,6 
515,17 	4,2919 	6821,6 
515,67 	4,2963 	6826,6 
516,17 	4,3004 	6824,9 
516,67 	4,3046 	6830,0 
517,17 	4,3088 	6831,7 
517,67 	4,3128 	6831,7 
518,17 	4,3172 	6836,7 
518,67 	4,3212 	6833,4 
519,17 	4,3254 	6838,4 
519,67 	4,3295 	6838,4 
520,17 	4,3337 	6840,1 
520,67 	4,3379 	6845,2 
521,17 	4,3420 	6843,5 
521,67 	4,3463 	6850,2 
522,17 	4,3503 	6848,5 
522,67 	4,3546 	6851,9 
523,17 	4,3588 	6853,6 
523,67 	4,3630 	6853,6 
524,17 	4,3672 	6858,6 
524,67 	4,3711 	6853,6 
525,17 	4,3755 	6863,7 
525,67 	4,3795 	6862,0 
526,17 	4,3838 	6863,7 
526,67 	4,3880 	6868,7 
527,17 	4,3920 	6865,4 
527,67 	4,3964 	6872,1 
528,17 	4,4003 	6870,4 
528,67 	4,4047 	6873,8 
529,17 	4,4088 	6873,8 
529,67 	4,4129 	6875,5 
530,17 	4,4171 	6880,5 
530,67 	4,4211 	6878,9 
531,17 	4,4255 	6883,9 
531,67 	4,4295 	6882,2 
532,17 	4,4337 	6885,6 
532,67 	4,4378 	6890,6 
533,17 	4,4420 	6889,0 
533,67 	4,4464 	6895,7 
534,17 	4,4504 	6890,6 
534,67 	4,4546 	6897,4 
535,17 	4,4587 	6897,4 
535,67 	4,4628 	6897,4 
536,17 	4,4671 	6902,4 
536,67 	4,4712 	6902,4 
537,17 	4,4755 	6907,5 
537,67 	4,4794 	6905,8 
538,17 	4,4838 	6909,2 
538,67 	4,4880 	6910,9 
539,17 	4,4921 	6912,5 
539,67 	4,4964 	6915,9 
540,17 	4,5003 	6912,5 
540,67 	4,5046 	6921,0 
541,17 	4,5087 	6921,0 
541,67 	4,5130 	6922,7 
542,17 	4,5171 	6926,0 
542,67 	4,5212 	6922,7 
543,17 	4,5255 	6929,4 
543,67 	4,5295 	6927,7 
544,17 	4,5339 	6931,1 
544,67 	4,5379 	6932,8 
545,17 	4,5421 	6934,5 
545,67 	4,5462 	6937,8 
546,17 	4,5503 	6936,1 
546,67 	4,5547 	6944,6 
547,17 	4,5586 	6939,5 
547,67 	4,5629 	6942,9 
548,17 	4,5671 	6946,2 
548,67 	4,5712 	6946,2 
549,17 	4,5756 	6951,3 
549,67 	4,5795 	6949,6 
550,17 	4,5838 	6953,0 
550,67 	4,5878 	6954,7 
551,17 	4,5920 	6958,0 
551,67 	4,5963 	6961,4 
552,17 	4,6003 	6959,7 
552,67 	4,6047 	6964,8 
553,17 	4,6085 	6961,4 
553,67 	4,6129 	6968,1 
554,17 	4,6172 	6971,5 
554,67 	4,6213 	6968,1 
555,17 	4,6255 	6973,2 
555,67 	4,6294 	6971,5 
556,17 	4,6338 	6978,3 
556,67 	4,6379 	6976,6 
557,17 	4,6421 	6979,9 
557,67 	4,6462 	6981,6 
558,17 	4,6503 	6981,6 
558,67 	4,6547 	6986,7 
559,17 	4,6587 	6985,0 
559,67 	4,6630 	6988,4 
560,17 	4,6671 	6990,0 
560,67 	4,6712 	6990,0 
561,17 	4,6754 	6995,1 
561,67 	4,6795 	6995,1 
562,17 	4,6839 	7000,2 
562,67 	4,6878 	6996,8 
563,17 	4,6921 	7001,8 
563,67 	4,6962 	7003,5 
564,17 	4,7004 	7005,2 
564,67 	4,7048 	7010,3 
565,17 	4,7087 	7006,9 
565,67 	4,7130 	7011,9 
566,17 	4,7169 	7010,3 
566,67 	4,7212 	7015,3 
567,17 	4,7254 	7017,0 
567,67 	4,7295 	7015,3 
568,17 	4,7338 	7022,1 
568,67 	4,7377 	7017,0 
569,17 	4,7421 	7025,4 
569,67 	4,7463 	7027,1 
570,17 	4,7505 	7025,4 
570,67 	4,7547 	7028,8 
571,17 	4,7586 	7027,1 
571,67 	4,7629 	7032,2 
572,17 	4,7670 	7032,2 
572,67 	4,7713 	7035,5 
573,17 	4,7754 	7037,2 
573,67 	4,7795 	7037,2 
574,17 	4,7838 	7047,3 
574,67 	4,7878 	7040,6 
575,17 	4,7922 	7044,0 
575,67 	4,7962 	7045,6 
576,17 	4,8004 	7047,3 
576,67 	4,8045 	7052,4 
577,17 	4,8086 	7050,7 
577,67 	4,8130 	7055,8 
578,17 	4,8170 	7054,1 
578,67 	4,8213 	7057,4 
579,17 	4,8253 	7059,1 
579,67 	4,8296 	7060,8 
580,17 	4,8339 	7065,9 
580,67 	4,8378 	7062,5 
581,17 	4,8422 	7065,9 
581,67 	4,8460 	7065,9 
582,17 	4,8504 	7069,2 
582,67 	4,8546 	7072,6 
583,17 	4,8586 	7070,9 
583,67 	4,8630 	7076,0 
584,17 	4,8669 	7074,3 
584,67 	4,8713 	7081,0 
585,17 	4,8754 	7081,0 
585,67 	4,8796 	7082,7 
586,17 	4,8838 	7086,1 
586,67 	4,8877 	7082,7 
587,17 	4,8921 	7091,1 
587,67 	4,8961 	7087,8 
588,17 	4,9004 	7091,1 
588,67 	4,9046 	7092,8 
589,17 	4,9086 	7092,8 
589,67 	4,9130 	7099,6 
590,17 	4,9170 	7096,2 
590,67 	4,9213 	7101,2 
591,17 	4,9254 	7099,6 
591,67 	4,9296 	7102,9 
592,17 	4,9337 	7104,6 
592,67 	4,9378 	7106,3 
593,17 	4,9422 	7111,4 
593,67 	4,9461 	7106,3 
594,17 	4,9505 	7114,7 
594,67 	4,9544 	7113,0 
595,17 	4,9587 	7116,4 
595,67 	4,9631 	7121,5 
596,17 	4,9671 	7116,4 
596,67 	4,9713 	7123,1 
597,17 	4,9753 	7119,8 
597,67 	4,9796 	7126,5 
598,17 	4,9837 	7128,2 
598,67 	4,9879 	7128,2 
599,17 	4,9922 	7133,3 
599,67 	4,9961 	7129,9 
600,17 	5,0005 	7136,6 
600,67 	5,0046 	7136,6 
601,17 	5,0088 	7136,6 
601,67 	5,0130 	7140,0 
602,17 	5,0169 	7140,0 
602,67 	5,0213 	7145,0 
603,17 	5,0252 	7143,4 
603,67 	5,0296 	7148,4 
604,17 	5,0337 	7148,4 
604,67 	5,0378 	7148,4 
605,17 	5,0421 	7153,5 
605,67 	5,0461 	7151,8 
606,17 	5,0505 	7158,5 
606,67 	5,0546 	7155,2 
607,17 	5,0587 	7158,5 
607,67 	5,0629 	7160,2 
608,17 	5,0669 	7160,2 
608,67 	5,0713 	7168,6 
609,17 	5,0753 	7161,9 
609,67 	5,0796 	7170,3 
610,17 	5,0837 	7166,9 
610,67 	5,0879 	7170,3 
611,17 	5,0922 	7175,4 
611,67 	5,0962 	7172,0 
612,17 	5,1005 	7175,4 
612,67 	5,1045 	7175,4 
613,17 	5,1087 	7178,7 
613,67 	5,1128 	7182,1 
614,17 	5,1171 	7182,1 
614,67 	5,1212 	7187,2 
615,17 	5,1253 	7185,5 
615,67 	5,1297 	7193,9 
616,17 	5,1337 	7188,8 
616,67 	5,1379 	7190,5 
617,17 	5,1422 	7195,6 
617,67 	5,1461 	7190,5 
618,17 	5,1504 	7199,0 
618,67 	5,1544 	7197,3 
619,17 	5,1587 	7200,6 
619,67 	5,1628 	7200,6 
620,17 	5,1670 	7204,0 
620,67 	5,1713 	7205,7 
621,17 	5,1753 	7207,4 
621,67 	5,1797 	7210,8 
622,17 	5,1837 	7209,1 
622,67 	5,1879 	7212,4 
623,17 	5,1920 	7214,1 
623,67 	5,1961 	7214,1 
624,17 	5,2004 	7219,2 
624,67 	5,2044 	7217,5 
625,17 	5,2088 	7222,5 
625,67 	5,2128 	7220,9 
626,17 	5,2171 	7224,2 
626,67 	5,2213 	7229,3 
627,17 	5,2254 	7225,9 
627,67 	5,2297 	7232,7 
628,17 	5,2336 	7227,6 
628,67 	5,2379 	7234,3 
629,17 	5,2420 	7236,0 
629,67 	5,2462 	7236,0 
630,17 	5,2505 	7239,4 
630,67 	5,2544 	7236,0 
631,17 	5,2588 	7244,4 
631,67 	5,2628 	7242,8 
632,17 	5,2672 	7246,1 
632,67 	5,2713 	7246,1 
633,17 	5,2754 	7246,1 
633,67 	5,2796 	7252,9 
634,17 	5,2836 	7249,5 
634,67 	5,2880 	7256,2 
635,17 	5,2920 	7254,6 
635,67 	5,2962 	7256,2 
636,17 	5,3004 	7263,0 
636,67 	5,3044 	7259,6 
637,17 	5,3088 	7264,7 
637,67 	5,3128 	7261,3 
638,17 	5,3171 	7266,3 
638,67 	5,3211 	7266,3 
639,17 	5,3252 	7268,0 
639,67 	5,3296 	7273,1 
640,17 	5,3336 	7271,4 
640,67 	5,3379 	7276,5 
641,17 	5,3419 	7274,8 
641,67 	5,3462 	7278,1 
642,17 	5,3504 	7281,5 
642,67 	5,3546 	7279,8 
643,17 	5,3588 	7284,9 
643,67 	5,3627 	7281,5 
644,17 	5,3671 	7288,2 
644,67 	5,3712 	7288,2 
645,17 	5,3754 	7288,2 
645,67 	5,3796 	7293,3 
646,17 	5,3836 	7289,9 
646,67 	5,3880 	7296,7 
647,17 	5,3920 	7295,0 
647,67 	5,3963 	7298,4 
648,17 	5,4004 	7300,0 
648,67 	5,4045 	7300,0 
649,17 	5,4087 	7305,1 
649,67 	5,4128 	7301,7 
650,17 	5,4172 	7310,2 
650,67 	5,4211 	7306,8 
651,17 	5,4254 	7310,2 
651,67 	5,4296 	7313,5 
652,17 	5,4336 	7311,8 
652,67 	5,4380 	7316,9 
653,17 	5,4420 	7315,2 
653,67 	5,4462 	7316,9 
654,17 	5,4502 	7316,9 
654,67 	5,4545 	7320,3 
655,17 	5,4588 	7325,3 
655,67 	5,4628 	7320,3 
656,17 	5,4671 	7328,7 
656,67 	5,4710 	7327,0 
657,17 	5,4754 	7332,1 
657,67 	5,4796 	7333,7 
658,17 	5,4837 	7332,1 
658,67 	5,4880 	7337,1 
659,17 	5,4919 	7333,7 
659,67 	5,4962 	7340,5 
660,17 	5,5004 	7340,5 
660,67 	5,5046 	7342,2 
661,17 	5,5087 	7343,8 
661,67 	5,5128 	7343,8 
662,17 	5,5172 	7350,6 
662,67 	5,5212 	7347,2 
663,17 	5,5255 	7350,6 
663,67 	5,5296 	7352,3 
664,17 	5,5337 	7352,3 
664,67 	5,5379 	7357,3 
665,17 	5,5419 	7355,6 
665,67 	5,5463 	7362,4 
666,17 	5,5503 	7360,7 
666,67 	5,5546 	7362,4 
667,17 	5,5586 	7365,7 
667,67 	5,5629 	7365,7 
668,17 	5,5672 	7372,5 
668,67 	5,5711 	7367,4 
669,17 	5,5755 	7370,8 
669,67 	5,5794 	7370,8 
670,17 	5,5837 	7372,5 
670,67 	5,5880 	7379,2 
671,17 	5,5919 	7375,9 
671,67 	5,5963 	7382,6 
672,17 	5,6002 	7377,5 
672,67 	5,6045 	7384,3 
673,17 	5,6088 	7386,0 
673,67 	5,6129 	7386,0 
674,17 	5,6171 	7389,3 
674,67 	5,6210 	7386,0 
675,17 	5,6254 	7391,0 
675,67 	5,6295 	7392,7 
676,17 	5,6338 	7394,4 
676,67 	5,6379 	7396,1 
677,17 	5,6420 	7396,1 
677,67 	5,6463 	7404,5 
678,17 	5,6503 	7399,4 
678,67 	5,6546 	7402,8 
679,17 	5,6587 	7404,5 
679,67 	5,6628 	7404,5 
680,17 	5,6670 	7409,6 
680,67 	5,6711 	7406,2 
681,17 	5,6755 	7414,6 
681,67 	5,6795 	7409,6 
682,17 	5,6837 	7416,3 
682,67 	5,6878 	7416,3 
683,17 	5,6921 	7418,0 
683,67 	5,6964 	7421,3 
684,17 	5,7003 	7418,0 
684,67 	5,7046 	7423,0 
685,17 	5,7085 	7421,3 
685,67 	5,7129 	7424,7 
686,17 	5,7171 	7428,1 
686,67 	5,7211 	7428,1 
687,17 	5,7255 	7433,1 
687,67 	5,7294 	7429,8 
688,17 	5,7337 	7434,8 
688,67 	5,7379 	7436,5 
689,17 	5,7421 	7436,5 
689,67 	5,7463 	7438,2 
690,17 	5,7502 	7434,8 
690,67 	5,7546 	7444,9 
691,17 	5,7586 	7441,6 
691,67 	5,7629 	7444,9 
692,17 	5,7671 	7446,6 
692,67 	5,7711 	7444,9 
693,17 	5,7754 	7451,7 
693,67 	5,7795 	7451,7 
694,17 	5,7838 	7453,4 
694,67 	5,7879 	7455,0 
695,17 	5,7920 	7455,0 
695,67 	5,7961 	7456,7 
696,17 	5,8003 	7458,4 
696,67 	5,8047 	7465,1 
697,17 	5,8086 	7460,1 
697,67 	5,8129 	7465,1 
698,17 	5,8169 	7468,5 
698,67 	5,8212 	7468,5 
699,17 	5,8255 	7471,9 
699,67 	5,8295 	7468,5 
700,17 	5,8338 	7473,6 
700,67 	5,8377 	7471,9 
701,17 	5,8420 	7476,9 
701,67 	5,8462 	7478,6 
702,17 	5,8504 	7476,9 
702,67 	5,8547 	7483,7 
703,17 	5,8586 	7478,6 
703,67 	5,8630 	7485,4 
704,17 	5,8671 	7485,4 
704,67 	5,8712 	7487,1 
705,17 	5,8755 	7488,7 
705,67 	5,8794 	7487,1 
706,17 	5,8838 	7493,8 
706,67 	5,8877 	7492,1 
707,17 	5,8921 	7495,5 
707,67 	5,8962 	7497,2 
708,17 	5,9003 	7497,2 
708,67 	5,9046 	7502,2 
709,17 	5,9086 	7500,5 
709,67 	5,9129 	7503,9 
710,17 	5,9171 	7503,9 
710,67 	5,9212 	7505,6 
711,17 	5,9253 	7507,3 
711,67 	5,9294 	7507,3 
712,17 	5,9338 	7515,7 
712,67 	5,9377 	7509,0 
713,17 	5,9421 	7515,7 
713,67 	5,9462 	7515,7 
714,17 	5,9503 	7517,4 
714,67 	5,9547 	7522,4 
715,17 	5,9587 	7519,1 
715,67 	5,9630 	7524,1 
716,17 	5,9669 	7520,7 
716,67 	5,9712 	7525,8 
717,17 	5,9753 	7527,5 
717,67 	5,9796 	7527,5 
718,17 	5,9837 	7530,9 
718,67 	5,9877 	7527,5 
719,17 	5,9921 	7535,9 
719,67 	5,9962 	7535,9 
720,17 	6,0004 	7534,2 
720,67 	6,0046 	7541,0 
721,17 	6,0086 	7535,9 
721,67 	6,0129 	7544,3 
722,17 	6,0169 	7541,0 
722,67 	6,0212 	7546,0 
723,17 	6,0253 	7544,3 
723,67 	6,0295 	7546,0 
724,17 	6,0338 	7551,1 
724,67 	6,0377 	7547,7 
725,17 	6,0421 	7554,4 
725,67 	6,0462 	7551,1 
726,17 	6,0503 	7554,4 
726,67 	6,0545 	7557,8 
727,17 	6,0586 	7557,8 
727,67 	6,0629 	7562,9 
728,17 	6,0670 	7559,5 
728,67 	6,0712 	7562,9 
729,17 	6,0753 	7564,5 
729,67 	6,0795 	7566,2 
730,17 	6,0838 	7571,3 
730,67 	6,0879 	7567,9 
731,17 	6,0921 	7573,0 
731,67 	6,0960 	7567,9 
732,17 	6,1003 	7574,7 
732,67 	6,1045 	7578,0 
733,17 	6,1087 	7574,7 
733,67 	6,1130 	7581,4 
734,17 	6,1169 	7576,3 
734,67 	6,1213 	7584,8 
735,17 	6,1254 	7584,8 
735,67 	6,1296 	7584,8 
736,17 	6,1338 	7584,8 
736,67 	6,1378 	7586,5 
737,17 	6,1421 	7589,8 
737,67 	6,1460 	7589,8 
738,17 	6,1505 	7593,2 
738,67 	6,1545 	7593,2 
739,17 	6,1586 	7593,2 
739,67 	6,1629 	7601,6 
740,17 	6,1669 	7596,6 
740,67 	6,1713 	7599,9 
741,17 	6,1753 	7598,2 
741,67 	6,1795 	7603,3 
742,17 	6,1837 	7605,0 
742,67 	6,1877 	7605,0 
743,17 	6,1921 	7611,7 
743,67 	6,1961 	7606,7 
744,17 	6,2004 	7611,7 
744,67 	6,2044 	7610,0 
745,17 	6,2087 	7615,1 
745,67 	6,2129 	7616,8 
746,17 	6,2170 	7616,8 
746,67 	6,2213 	7620,1 
747,17 	6,2252 	7616,8 
747,67 	6,2295 	7623,5 
748,17 	6,2337 	7623,5 
748,67 	6,2379 	7623,5 
749,17 	6,2421 	7628,6 
749,67 	6,2461 	7625,2 
750,17 	6,2504 	7631,9 
750,67 	6,2545 	7631,9 
751,17 	6,2588 	7633,6 
751,67 	6,2629 	7635,3 
752,17 	6,2670 	7635,3 
752,67 	6,2712 	7638,7 
753,17 	6,2752 	7635,3 
753,67 	6,2797 	7642,0 
754,17 	6,2836 	7640,4 
754,67 	6,2878 	7642,0 
755,17 	6,2921 	7645,4 
755,67 	6,2961 	7643,7 
756,17 	6,3005 	7648,8 
756,67 	6,3045 	7648,8 
757,17 	6,3087 	7648,8 
757,67 	6,3128 	7650,5 
758,17 	6,3169 	7653,8 
758,67 	6,3213 	7657,2 
759,17 	6,3252 	7653,8 
759,67 	6,3296 	7662,3 
760,17 	6,3335 	7657,2 
760,67 	6,3378 	7662,3 
761,17 	6,3421 	7665,6 
761,67 	6,3462 	7662,3 
762,17 	6,3504 	7667,3 
762,67 	6,3543 	7663,9 
763,17 	6,3587 	7670,7 
763,67 	6,3628 	7669,0 
764,17 	6,3671 	7672,4 
764,67 	6,3712 	7675,7 
765,17 	6,3752 	7672,4 
765,67 	6,3796 	7680,8 
766,17 	6,3837 	7675,7 
766,67 	6,3879 	7679,1 
767,17 	6,3921 	7680,8 
767,67 	6,3961 	7680,8 
768,17 	6,4004 	7684,2 
768,67 	6,4044 	7684,2 
769,17 	6,4088 	7689,2 
769,67 	6,4128 	7687,5 
770,17 	6,4170 	7689,2 
770,67 	6,4211 	7692,6 
771,17 	6,4253 	7690,9 
771,67 	6,4297 	7697,6 
772,17 	6,4336 	7692,6 
772,67 	6,4379 	7697,6 
773,17 	6,4419 	7697,6 
773,67 	6,4461 	7699,3 
774,17 	6,4504 	7704,4 
774,67 	6,4544 	7701,0 
775,17 	6,4587 	7707,8 
775,67 	6,4627 	7702,7 
776,17 	6,4670 	7709,4 
776,67 	6,4713 	7711,1 
777,17 	6,4754 	7711,1 
777,67 	6,4796 	7712,8 
778,17 	6,4835 	7711,1 
778,67 	6,4878 	7717,9 
779,17 	6,4920 	7717,9 
779,67 	6,4962 	7719,5 
780,17 	6,5004 	7719,5 
780,67 	6,5044 	7719,5 
781,17 	6,5087 	7728,0 
781,67 	6,5128 	7722,9 
782,17 	6,5171 	7724,6 
782,67 	6,5212 	7728,0 
783,17 	6,5253 	7726,3 
783,67 	6,5295 	7733,0 
784,17 	6,5335 	7729,7 
784,67 	6,5379 	7736,4 
785,17 	6,5420 	7733,0 
785,67 	6,5462 	7736,4 
786,17 	6,5503 	7738,1 
786,67 	6,5545 	7739,8 
787,17 	6,5589 	7743,1 
787,67 	6,5628 	7739,8 
788,17 	6,5671 	7743,1 
788,67 	6,5710 	7743,1 
789,17 	6,5753 	7744,8 
789,67 	6,5796 	7749,9 
790,17 	6,5836 	7746,5 
790,67 	6,5880 	7753,2 
791,17 	6,5919 	7751,6 
791,67 	6,5962 	7754,9 
792,17 	6,6004 	7756,6 
792,67 	6,6045 	7756,6 
793,17 	6,6088 	7760,0 
793,67 	6,6126 	7754,9 
794,17 	6,6170 	7765,0 
794,67 	6,6211 	7761,7 
795,17 	6,6253 	7765,0 
795,67 	6,6296 	7766,7 
796,17 	6,6335 	7765,0 
796,67 	6,6379 	7771,8 
797,17 	6,6420 	7770,1 
797,67 	6,6463 	7771,8 
798,17 	6,6504 	7771,8 
798,67 	6,6545 	7773,5 
799,17 	6,6586 	7776,8 
799,67 	6,6627 	7775,1 
800,17 	6,6671 	7783,6 
800,67 	6,6711 	7778,5 
801,17 	6,6753 	7781,9 
801,67 	6,6794 	7786,9 
802,17 	6,6836 	7785,3 
802,67 	6,6880 	7790,3 
803,17 	6,6920 	7785,3 
803,67 	6,6962 	7790,3 
804,17 	6,7002 	7788,6 
804,67 	6,7045 	7792,0 
805,17 	6,7087 	7795,4 
805,67 	6,7128 	7793,7 
806,17 	6,7171 	7798,7 
806,67 	6,7210 	7793,7 
807,17 	6,7254 	7800,4 
807,67 	6,7296 	7802,1 
808,17 	6,7337 	7802,1 
808,67 	6,7380 	7803,8 
809,17 	6,7418 	7802,1 
809,67 	6,7462 	7808,8 
810,17 	6,7502 	7807,2 
810,67 	6,7545 	7810,5 
811,17 	6,7587 	7812,2 
811,67 	6,7627 	7810,5 
812,17 	6,7670 	7817,3 
812,67 	6,7711 	7813,9 
813,17 	6,7754 	7817,3 
813,67 	6,7795 	7817,3 
814,17 	6,7836 	7818,9 
814,67 	6,7878 	7820,6 
815,17 	6,7918 	7820,6 
815,67 	6,7963 	7827,4 
816,17 	6,8002 	7822,3 
816,67 	6,8045 	7829,1 
817,17 	6,8087 	7827,4 
817,67 	6,8128 	7829,1 
818,17 	6,8171 	7834,1 
818,67 	6,8211 	7830,7 
819,17 	6,8254 	7834,1 
819,67 	6,8294 	7834,1 
820,17 	6,8337 	7837,5 
820,67 	6,8378 	7839,2 
821,17 	6,8420 	7837,5 
821,67 	6,8463 	7842,5 
822,17 	6,8502 	7839,2 
822,67 	6,8546 	7847,6 
823,17 	6,8587 	7847,6 
823,67 	6,8629 	7845,9 
824,17 	6,8671 	7851,0 
824,67 	6,8711 	7845,9 
825,17 	6,8754 	7854,3 
825,67 	6,8794 	7851,0 
826,17 	6,8837 	7854,3 
826,67 	6,8878 	7856,0 
827,17 	6,8919 	7856,0 
827,67 	6,8963 	7859,4 
828,17 	6,9002 	7857,7 
828,67 	6,9046 	7862,8 
829,17 	6,9087 	7861,1 
829,67 	6,9128 	7862,8 
830,17 	6,9170 	7866,1 
830,67 	6,9210 	7864,4 
831,17 	6,9254 	7871,2 
831,67 	6,9294 	7867,8 
832,17 	6,9337 	7872,9 
832,67 	6,9378 	7872,9 
833,17 	6,9420 	7872,9 
833,67 	6,9463 	7879,6 
834,17 	6,9503 	7874,5 
834,67 	6,9546 	7879,6 
835,17 	6,9585 	7877,9 
835,67 	6,9628 	7883,0 
836,17 	6,9670 	7886,3 
836,67 	6,9711 	7883,0 
837,17 	6,9754 	7888,0 
837,67 	6,9793 	7883,0 
838,17 	6,9837 	7889,7 
838,67 	6,9878 	7891,4 
839,17 	6,9921 	7891,4 
839,67 	6,9962 	7893,1 
840,17 	7,0002 	7891,4 
840,67 	7,0046 	7898,1 
841,17 	7,0085 	7894,8 
841,67 	7,0129 	7899,8 
842,17 	7,0170 	7899,8 
842,67 	7,0211 	7899,8 
843,17 	7,0254 	7908,2 
843,67 	7,0294 	7904,9 
844,17 	7,0337 	7906,6 
844,67 	7,0378 	7904,9 
845,17 	7,0419 	7908,2 
845,67 	7,0461 	7909,9 
846,17 	7,0502 	7909,9 
846,67 	7,0546 	7916,7 
847,17 	7,0585 	7911,6 
847,67 	7,0628 	7916,7 
848,17 	7,0669 	7916,7 
848,67 	7,0712 	7918,3 
849,17 	7,0754 	7921,7 
849,67 	7,0795 	7920,0 
850,17 	7,0837 	7925,1 
850,67 	7,0876 	7920,0 
851,17 	7,0920 	7926,8 
851,67 	7,0961 	7928,5 
852,17 	7,1003 	7926,8 
852,67 	7,1046 	7933,5 
853,17 	7,1085 	7928,5 
853,67 	7,1129 	7935,2 
854,17 	7,1170 	7935,2 
854,67 	7,1212 	7935,2 
855,17 	7,1254 	7936,9 
855,67 	7,1294 	7935,2 
856,17 	7,1337 	7941,9 
856,67 	7,1377 	7938,6 
857,17 	7,1421 	7945,3 
857,67 	7,1461 	7943,6 
858,17 	7,1503 	7943,6 
858,67 	7,1546 	7948,7 
859,17 	7,1586 	7947,0 
859,67 	7,1630 	7950,4 
860,17 	7,1670 	7948,7 
860,67 	7,1712 	7950,4 
861,17 	7,1752 	7952,0 
861,67 	7,1794 	7955,4 
862,17 	7,1838 	7958,8 
862,67 	7,1877 	7953,7 
863,17 	7,1920 	7962,2 
863,67 	7,1959 	7958,8 
864,17 	7,2003 	7963,8 
864,67 	7,2046 	7967,2 
865,17 	7,2086 	7963,8 
865,67 	7,2129 	7968,9 
866,17 	7,2168 	7965,5 
866,67 	7,2211 	7970,6 
867,17 	7,2253 	7972,3 
867,67 	7,2295 	7972,3 
868,17 	7,2337 	7973,9 
868,67 	7,2377 	7972,3 
869,17 	7,2421 	7979,0 
869,67 	7,2462 	7975,6 
870,17 	7,2504 	7977,3 
870,67 	7,2546 	7980,7 
871,17 	7,2586 	7979,0 
871,67 	7,2628 	7982,4 
872,17 	7,2669 	7982,4 
872,67 	7,2712 	7985,7 
873,17 	7,2752 	7985,7 
873,67 	7,2795 	7987,4 
874,17 	7,2837 	7990,8 
874,67 	7,2878 	7989,1 
875,17 	7,2922 	7995,8 
875,67 	7,2961 	7990,8 
876,17 	7,3004 	7994,2 
876,67 	7,3044 	7995,8 
877,17 	7,3086 	7995,8 
877,67 	7,3130 	8002,6 
878,17 	7,3168 	7997,5 
878,67 	7,3212 	8002,6 
879,17 	7,3252 	8002,6 
879,67 	7,3295 	8006,0 
880,17 	7,3338 	8007,6 
880,67 	7,3378 	8006,0 
881,17 	7,3421 	8009,3 
881,67 	7,3460 	8006,0 
882,17 	7,3503 	8011,0 
882,67 	7,3544 	8014,4 
883,17 	7,3587 	8012,7 
883,67 	7,3628 	8016,1 
884,17 	7,3668 	8014,4 
884,67 	7,3712 	8024,5 
885,17 	7,3753 	8019,4 
885,67 	7,3796 	8021,1 
886,17 	7,3837 	8022,8 
886,67 	7,3877 	8021,1 
887,17 	7,3920 	8026,2 
887,67 	7,3960 	8022,8 
888,17 	7,4004 	8029,5 
888,67 	7,4044 	8026,2 
889,17 	7,4086 	8029,5 
889,67 	7,4128 	8031,2 
890,17 	7,4170 	8031,2 
890,67 	7,4213 	8034,6 
891,17 	7,4252 	8031,2 
891,67 	7,4295 	8036,3 
892,17 	7,4335 	8036,3 
892,67 	7,4378 	8038,0 
893,17 	7,4421 	8043,0 
893,67 	7,4461 	8039,6 
894,17 	7,4504 	8044,7 
894,67 	7,4543 	8043,0 
895,17 	7,4587 	8046,4 
895,67 	7,4629 	8049,8 
896,17 	7,4670 	8049,8 
896,67 	7,4713 	8051,4 
897,17 	7,4751 	8048,1 
897,67 	7,4795 	8054,8 
898,17 	7,4836 	8053,1 
898,67 	7,4878 	8054,8 
899,17 	7,4921 	8058,2 
899,67 	7,4960 	8054,8 
900,17 	7,5004 	8061,6 
900,67 	7,5045 	8059,9 
901,17 	7,5087 	8063,2 
901,67 	7,5129 	8063,2 
902,17 	7,5169 	8063,2 
902,67 	7,5211 	8066,6 
903,17 	7,5251 	8064,9 
903,67 	7,5296 	8071,7 
904,17 	7,5336 	8066,6 
904,67 	7,5378 	8071,7 
905,17 	7,5419 	8076,7 
905,67 	7,5461 	8073,3 
906,17 	7,5505 	8078,4 
906,67 	7,5545 	8073,3 
907,17 	7,5587 	8078,4 
907,67 	7,5627 	8080,1 
908,17 	7,5669 	8080,1 
908,67 	7,5712 	8083,5 
909,17 	7,5753 	8081,8 
909,67 	7,5796 	8086,8 
910,17 	7,5835 	8081,8 
910,67 	7,5879 	8088,5 
911,17 	7,5921 	8090,2 
911,67 	7,5961 	8088,5 
912,17 	7,6005 	8091,9 
912,67 	7,6043 	8088,5 
913,17 	7,6087 	8095,2 
913,67 	7,6127 	8093,6 
914,17 	7,6170 	8096,9 
914,67 	7,6212 	8098,6 
915,17 	7,6252 	8098,6 
915,67 	7,6295 	8103,7 
916,17 	7,6336 	8100,3 
916,67 	7,6379 	8103,7 
917,17 	7,6420 	8103,7 
917,67 	7,6461 	8103,7 
918,17 	7,6503 	8108,7 
918,67 	7,6543 	8107,0 
919,17 	7,6587 	8112,1 
919,67 	7,6627 	8107,0 
920,17 	7,6670 	8112,1 
920,67 	7,6711 	8112,1 
921,17 	7,6752 	8113,8 
921,67 	7,6796 	8117,1 
922,17 	7,6836 	8113,8 
922,67 	7,6879 	8118,8 
923,17 	7,6919 	8118,8 
923,67 	7,6961 	8120,5 
924,17 	7,7003 	8123,9 
924,67 	7,7044 	8120,5 
925,17 	7,7087 	8125,6 
925,67 	7,7127 	8122,2 
926,17 	7,7170 	8130,6 
926,67 	7,7212 	8130,6 
927,17 	7,7253 	8127,3 
927,67 	7,7296 	8134,0 
928,17 	7,7335 	8128,9 
928,67 	7,7379 	8135,7 
929,17 	7,7419 	8135,7 
929,67 	7,7462 	8139,1 
930,17 	7,7503 	8137,4 
930,67 	7,7543 	8139,1 
931,17 	7,7588 	8144,1 
931,67 	7,7627 	8140,7 
932,17 	7,7670 	8144,1 
932,67 	7,7711 	8142,4 
933,17 	7,7752 	8144,1 
933,67 	7,7795 	8147,5 
934,17 	7,7835 	8145,8 
934,67 	7,7879 	8152,5 
935,17 	7,7919 	8150,8 
935,67 	7,7961 	8152,5 
936,17 	7,8003 	8154,2 
936,67 	7,8045 	8154,2 
937,17 	7,8088 	8159,3 
937,67 	7,8128 	8155,9 
938,17 	7,8171 	8161,0 
938,67 	7,8210 	8157,6 
939,17 	7,8252 	8161,0 
939,67 	7,8295 	8166,0 
940,17 	7,8336 	8162,6 
940,67 	7,8379 	8166,0 
941,17 	7,8418 	8162,6 
941,67 	7,8462 	8169,4 
942,17 	7,8503 	8171,1 
942,67 	7,8546 	8171,1 
943,17 	7,8587 	8171,1 
943,67 	7,8627 	8169,4 
944,17 	7,8670 	8176,1 
944,67 	7,8710 	8174,4 
945,17 	7,8754 	8176,1 
945,67 	7,8794 	8177,8 
946,17 	7,8836 	8177,8 
946,67 	7,8879 	8186,2 
947,17 	7,8918 	8179,5 
947,67 	7,8962 	8182,9 
948,17 	7,9003 	8182,9 
948,67 	7,9044 	8186,2 
949,17 	7,9086 	8187,9 
949,67 	7,9126 	8184,5 
950,17 	7,9170 	8193,0 
950,67 	7,9210 	8187,9 
951,17 	7,9253 	8193,0 
951,67 	7,9294 	8193,0 
952,17 	7,9336 	8194,6 
952,67 	7,9379 	8198,0 
953,17 	7,9419 	8194,6 
953,67 	7,9462 	8198,0 
954,17 	7,9502 	8198,0 
954,67 	7,9544 	8201,4 
955,17 	7,9586 	8203,1 
955,67 	7,9627 	8201,4 
956,17 	7,9671 	8208,1 
956,67 	7,9710 	8203,1 
957,17 	7,9754 	8208,1 
957,67 	7,9795 	8208,1 
958,17 	7,9837 	8209,8 
958,67 	7,9878 	8211,5 
959,17 	7,9919 	8209,8 
959,67 	7,9962 	8216,5 
960,17 	8,0002 	8211,5 
960,67 	8,0046 	8218,2 
961,17 	8,0086 	8216,5 
961,67 	8,0127 	8216,5 
962,17 	8,0171 	8223,3 
962,67 	8,0210 	8218,2 
963,17 	8,0254 	8223,3 
963,67 	8,0295 	8223,3 
964,17 	8,0336 	8223,3 
964,67 	8,0377 	8225,0 
965,17 	8,0418 	8226,7 
965,67 	8,0462 	8231,7 
966,17 	8,0501 	8226,7 
966,67 	8,0545 	8233,4 
967,17 	8,0584 	8231,7 
967,67 	8,0627 	8235,1 
968,17 	8,0671 	8238,5 
968,67 	8,0711 	8233,4 
969,17 	8,0753 	8238,5 
969,67 	8,0793 	8236,8 
970,17 	8,0836 	8240,1 
970,67 	8,0878 	8241,8 
971,17 	8,0920 	8241,8 
971,67 	8,0962 	8245,2 
972,17 	8,1001 	8241,8 
972,67 	8,1045 	8248,6 
973,17 	8,1087 	8246,9 
973,67 	8,1129 	8248,6 
974,17 	8,1171 	8251,9 
974,67 	8,1210 	8248,6 
975,17 	8,1253 	8253,6 
975,67 	8,1294 	8251,9 
976,17 	8,1337 	8255,3 
976,67 	8,1377 	8255,3 
977,17 	8,1419 	8255,3 
977,67 	8,1461 	8258,7 
978,17 	8,1502 	8258,7 
978,67 	8,1546 	8263,7 
979,17 	8,1586 	8260,4 
979,67 	8,1629 	8262,0 
980,17 	8,1669 	8265,4 
980,67 	8,1710 	8263,7 
981,17 	8,1754 	8270,5 
981,67 	8,1793 	8265,4 
982,17 	8,1837 	8270,5 
982,67 	8,1877 	8268,8 
983,17 	8,1919 	8270,5 
983,67 	8,1963 	8275,5 
984,17 	8,2002 	8272,1 
984,67 	8,2045 	8275,5 
985,17 	8,2084 	8272,1 
985,67 	8,2127 	8277,2 
986,17 	8,2170 	8280,6 
986,67 	8,2211 	8278,9 
987,17 	8,2253 	8280,6 
987,67 	8,2293 	8280,6 
988,17 	8,2337 	8289,0 
988,67 	8,2378 	8283,9 
989,17 	8,2420 	8285,6 
989,67 	8,2462 	8289,0 
990,17 	8,2501 	8285,6 
990,67 	8,2545 	8292,4 
991,17 	8,2585 	8287,3 
991,67 	8,2628 	8294,0 
992,17 	8,2669 	8292,4 
992,67 	8,2711 	8294,0 
993,17 	8,2753 	8295,7 
993,67 	8,2794 	8295,7 
994,17 	8,2838 	8300,8 
994,67 	8,2877 	8297,4 
995,17 	8,2920 	8300,8 
995,67 	8,2960 	8300,8 
996,17 	8,3002 	8302,5 
996,67 	8,3046 	8307,5 
997,17 	8,3085 	8304,2 
997,67 	8,3129 	8307,5 
998,17 	8,3168 	8305,8 
998,67 	8,3211 	8307,5 
999,17 	8,3254 	8310,9 
999,67 	8,3294 	8310,9 
1000,2 	8,3337 	8314,3 
1000,7 	8,3375 	8307,5 
1001,2 	8,3419 	8317,6 
1001,7 	8,3461 	8317,6 
1002,2 	8,3502 	8317,6 
1002,7 	8,3545 	8321,0 
1003,2 	8,3584 	8316,0 
1003,7 	8,3628 	8324,4 
1004,2 	8,3670 	8321,0 
1004,7 	8,3712 	8322,7 
1005,2 	8,3753 	8322,7 
1005,7 	8,3794 	8322,7 
1006,2 	8,3836 	8327,7 
1006,7 	8,3876 	8326,1 
1007,2 	8,3921 	8329,4 
1007,7 	8,3961 	8327,7 
1008,2 	8,4002 	8329,4 
1008,7 	8,4044 	8337,9 
1009,2 	8,4085 	8332,8 
1009,7 	8,4129 	8336,2 
1010,2 	8,4169 	8332,8 
1010,7 	8,4212 	8337,9 
1011,2 	8,4252 	8336,2 
1011,7 	8,4294 	8337,9 
1012,2 	8,4337 	8342,9 
1012,7 	8,4377 	8339,5 
1013,2 	8,4420 	8344,6 
1013,7 	8,4460 	8341,2 
1014,2 	8,4503 	8344,6 
1014,7 	8,4546 	8348,0 
1015,2 	8,4586 	8346,3 
1015,7 	8,4629 	8349,6 
1016,2 	8,4668 	8346,3 
1016,7 	8,4711 	8351,3 
1017,2 	8,4752 	8353,0 
1017,7 	8,4794 	8353,0 
1018,2 	8,4836 	8356,4 
1018,7 	8,4876 	8351,3 
1019,2 	8,4920 	8359,8 
1019,7 	8,4960 	8356,4 
1020,2 	8,5003 	8359,8 
1020,7 	8,5045 	8359,8 
1021,2 	8,5085 	8359,8 
1021,7 	8,5128 	8363,1 
1022,2 	8,5168 	8361,4 
1022,7 	8,5212 	8368,2 
1023,2 	8,5252 	8363,1 
1023,7 	8,5294 	8366,5 
1024,2 	8,5336 	8368,2 
1024,7 	8,5377 	8368,2 
1025,2 	8,5421 	8373,2 
1025,7 	8,5461 	8369,9 
1026,2 	8,5503 	8371,5 
1026,7 	8,5544 	8371,5 
1027,2 	8,5585 	8374,9 
1027,7 	8,5628 	8378,3 
1028,2 	8,5669 	8374,9 
1028,7 	8,5712 	8381,7 
1029,2 	8,5751 	8376,6 
1029,7 	8,5795 	8385,0 
1030,2 	8,5837 	8385,0 
1030,7 	8,5878 	8383,3 
1031,2 	8,5921 	8388,4 
1031,7 	8,5960 	8381,7 
1032,2 	8,6003 	8390,1 
1032,7 	8,6044 	8388,4 
1033,2 	8,6086 	8390,1 
1033,7 	8,6128 	8391,8 
1034,2 	8,6168 	8390,1 
1034,7 	8,6212 	8395,1 
1035,2 	8,6252 	8391,8 
1035,7 	8,6295 	8395,1 
1036,2 	8,6336 	8395,1 
1036,7 	8,6377 	8395,1 
1037,2 	8,6420 	8400,2 
1037,7 	8,6459 	8398,5 
1038,2 	8,6503 	8401,9 
1038,7 	8,6544 	8400,2 
1039,2 	8,6586 	8403,6 
1039,7 	8,6627 	8405,2 
1040,2 	8,6669 	8405,2 
1040,7 	8,6712 	8410,3 
1041,2 	8,6752 	8405,2 
1041,7 	8,6795 	8408,6 
1042,2 	8,6835 	8408,6 
1042,7 	8,6877 	8410,3 
1043,2 	8,6920 	8415,4 
1043,7 	8,6960 	8410,3 
1044,2 	8,7004 	8417,0 
1044,7 	8,7043 	8413,7 
1045,2 	8,7086 	8418,7 
1045,7 	8,7128 	8418,7 
1046,2 	8,7170 	8418,7 
1046,7 	8,7212 	8420,4 
1047,2 	8,7251 	8417,0 
1047,7 	8,7295 	8425,5 
1048,2 	8,7334 	8422,1 
1048,7 	8,7379 	8423,8 
1049,2 	8,7419 	8425,5 
1049,7 	8,7460 	8425,5 
1050,2 	8,7504 	8433,9 
1050,7 	8,7543 	8428,8 
1051,2 	8,7587 	8428,8 
1051,7 	8,7628 	8430,5 
1052,2 	8,7669 	8430,5 
1052,7 	8,7711 	8433,9 
1053,2 	8,7751 	8432,2 
1053,7 	8,7795 	8438,9 
1054,2 	8,7835 	8433,9 
1054,7 	8,7877 	8437,3 
1055,2 	8,7919 	8438,9 
1055,7 	8,7960 	8438,9 
1056,2 	8,8004 	8442,3 
1056,7 	8,8044 	8438,9 
1057,2 	8,8086 	8444,0 
1057,7 	8,8126 	8440,6 
1058,2 	8,8169 	8445,7 
1058,7 	8,8211 	8447,4 
1059,2 	8,8252 	8445,7 
1059,7 	8,8295 	8450,7 
1060,2 	8,8335 	8447,4 
1060,7 	8,8378 	8452,4 
1061,2 	8,8420 	8454,1 
1061,7 	8,8462 	8452,4 
1062,2 	8,8503 	8455,8 
1062,7 	8,8543 	8452,4 
1063,2 	8,8587 	8459,2 
1063,7 	8,8627 	8455,8 
1064,2 	8,8670 	8460,8 
1064,7 	8,8711 	8460,8 
1065,2 	8,8752 	8459,2 
1065,7 	8,8796 	8464,2 
1066,2 	8,8835 	8462,5 
1066,7 	8,8879 	8464,2 
1067,2 	8,8920 	8465,9 
1067,7 	8,8961 	8464,2 
1068,2 	8,9002 	8467,6 
1068,7 	8,9043 	8469,3 
1069,2 	8,9087 	8472,6 
1069,7 	8,9126 	8465,9 
1070,2 	8,9169 	8472,6 
1070,7 	8,9209 	8472,6 
1071,2 	8,9252 	8474,3 
1071,7 	8,9296 	8479,4 
1072,2 	8,9335 	8472,6 
1072,7 	8,9378 	8477,7 
1073,2 	8,9418 	8477,7 
1073,7 	8,9460 	8481,1 
1074,2 	8,9503 	8481,1 
1074,7 	8,9544 	8481,1 
1075,2 	8,9586 	8484,4 
1075,7 	8,9626 	8481,1 
1076,2 	8,9670 	8486,1 
1076,7 	8,9711 	8484,4 
1077,2 	8,9753 	8486,1 
1077,7 	8,9795 	8489,5 
1078,2 	8,9834 	8486,1 
1078,7 	8,9878 	8491,2 
1079,2 	8,9919 	8489,5 
1079,7 	8,9961 	8492,8 
1080,2 	9,0002 	8492,8 
1080,7 	9,0044 	8492,8 
1081,2 	9,0087 	8497,9 
1081,7 	9,0127 	8494,5 
1082,2 	9,0171 	8501,3 
1082,7 	9,0210 	8496,2 
1083,2 	9,0253 	8497,9 
1083,7 	9,0294 	8501,3 
1084,2 	9,0335 	8499,6 
1084,7 	9,0379 	8506,3 
1085,2 	9,0418 	8501,3 
1085,7 	9,0461 	8504,6 
1086,2 	9,0502 	8504,6 
1086,7 	9,0544 	8506,3 
1087,2 	9,0588 	8511,4 
1087,7 	9,0627 	8506,3 
1088,2 	9,0670 	8511,4 
1088,7 	9,0709 	8508,0 
1089,2 	9,0752 	8513,1 
1089,7 	9,0794 	8514,8 
1090,2 	9,0836 	8513,1 
1090,7 	9,0878 	8516,4 
1091,2 	9,0917 	8513,1 
1091,7 	9,0961 	8521,5 
1092,2 	9,1003 	8518,1 
1092,7 	9,1045 	8518,1 
1093,2 	9,1087 	8521,5 
1093,7 	9,1126 	8518,1 
1094,2 	9,1169 	8524,9 
1094,7 	9,1210 	8523,2 
1095,2 	9,1253 	8526,5 
1095,7 	9,1294 	8524,9 
1096,2 	9,1335 	8526,5 
1096,7 	9,1378 	8529,9 
1097,2 	9,1419 	8526,5 
1097,7 	9,1462 	8531,6 
1098,2 	9,1502 	8528,2 
1098,7 	9,1545 	8531,6 
1099,2 	9,1585 	8531,6 
1099,7 	9,1627 	8533,3 
1100,2 	9,1671 	8538,3 
1100,7 	9,1710 	8533,3 
1101,2 	9,1753 	8538,3 
1101,7 	9,1793 	8538,3 
1102,2 	9,1836 	8538,3 
1102,7 	9,1879 	8543,4 
1103,2 	9,1919 	8541,7 
1103,7 	9,1962 	8545,1 
1104,2 	9,2000 	8540,0 
1104,7 	9,2044 	8545,1 
1105,2 	9,2086 	8546,8 
1105,7 	9,2127 	8545,1 
1106,2 	9,2170 	8550,1 
1106,7 	9,2209 	8545,1 
1107,2 	9,2253 	8551,8 
1107,7 	9,2295 	8551,8 
1108,2 	9,2337 	8551,8 
1108,7 	9,2378 	8551,8 
1109,2 	9,2418 	8551,8 
1109,7 	9,2461 	8556,9 
1110,2 	9,2501 	8553,5 
1110,7 	9,2545 	8560,2 
1111,2 	9,2586 	8556,9 
1111,7 	9,2627 	8558,6 
1112,2 	9,2669 	8565,3 
1112,7 	9,2710 	8560,2 
1113,2 	9,2754 	8563,6 
1113,7 	9,2794 	8561,9 
1114,2 	9,2836 	8563,6 
1114,7 	9,2877 	8565,3 
1115,2 	9,2918 	8565,3 
1115,7 	9,2962 	8570,3 
1116,2 	9,3002 	8565,3 
1116,7 	9,3045 	8572,0 
1117,2 	9,3084 	8570,3 
1117,7 	9,3128 	8573,7 
1118,2 	9,3171 	8575,4 
1118,7 	9,3210 	8572,0 
1119,2 	9,3254 	8577,1 
1119,7 	9,3292 	8572,0 
1120,2 	9,3336 	8577,1 
1120,7 	9,3377 	8578,8 
1121,2 	9,3419 	8580,5 
1121,7 	9,3461 	8582,1 
1122,2 	9,3501 	8578,8 
1122,7 	9,3545 	8585,5 
1123,2 	9,3586 	8583,8 
1123,7 	9,3628 	8583,8 
1124,2 	9,3670 	8585,5 
1124,7 	9,3709 	8585,5 
1125,2 	9,3753 	8588,9 
1125,7 	9,3792 	8585,5 
1126,2 	9,3836 	8592,3 
1126,7 	9,3877 	8588,9 
1127,2 	9,3919 	8592,3 
1127,7 	9,3961 	8592,3 
1128,2 	9,4001 	8592,3 
1128,7 	9,4045 	8595,6 
1129,2 	9,4086 	8593,9 
1129,7 	9,4128 	8595,6 
1130,2 	9,4169 	8597,3 
1130,7 	9,4210 	8597,3 
1131,2 	9,4253 	8602,4 
1131,7 	9,4293 	8597,3 
1132,2 	9,4337 	8602,4 
1132,7 	9,4376 	8600,7 
1133,2 	9,4419 	8604,0 
1133,7 	9,4462 	8607,4 
1134,2 	9,4503 	8602,4 
1134,7 	9,4545 	8609,1 
1135,2 	9,4584 	8604,0 
1135,7 	9,4628 	8610,8 
1136,2 	9,4669 	8609,1 
1136,7 	9,4711 	8609,1 
1137,2 	9,4753 	8610,8 
1137,7 	9,4793 	8610,8 
1138,2 	9,4837 	8615,8 
1138,7 	9,4877 	8612,5 
1139,2 	9,4920 	8615,8 
1139,7 	9,4961 	8615,8 
1140,2 	9,5001 	8614,2 
1140,7 	9,5045 	8620,9 
1141,2 	9,5084 	8615,8 
1141,7 	9,5128 	8620,9 
1142,2 	9,5169 	8620,9 
1142,7 	9,5210 	8620,9 
1143,2 	9,5253 	8624,3 
1143,7 	9,5294 	8624,3 
1144,2 	9,5337 	8627,6 
1144,7 	9,5377 	8622,6 
1145,2 	9,5420 	8627,6 
1145,7 	9,5460 	8627,6 
1146,2 	9,5501 	8627,6 
1146,7 	9,5545 	8632,7 
1147,2 	9,5585 	8629,3 
1147,7 	9,5628 	8634,4 
1148,2 	9,5668 	8629,3 
1148,7 	9,5711 	8634,4 
1149,2 	9,5753 	8636,1 
1149,7 	9,5795 	8634,4 
1150,2 	9,5837 	8637,7 
1150,7 	9,5876 	8632,7 
1151,2 	9,5920 	8641,1 
1151,7 	9,5959 	8639,4 
1152,2 	9,6003 	8639,4 
1152,7 	9,6044 	8642,8 
1153,2 	9,6085 	8639,4 
1153,7 	9,6129 	8647,8 
1154,2 	9,6168 	8642,8 
1154,7 	9,6211 	8644,5 
1155,2 	9,6253 	8646,2 
1155,7 	9,6293 	8644,5 
1156,2 	9,6336 	8649,5 
1156,7 	9,6376 	8646,2 
1157,2 	9,6420 	8652,9 
1157,7 	9,6460 	8647,8 
1158,2 	9,6502 	8652,9 
1158,7 	9,6544 	8652,9 
1159,2 	9,6585 	8652,9 
1159,7 	9,6629 	8656,3 
1160,2 	9,6668 	8652,9 
1160,7 	9,6711 	8656,3 
1161,2 	9,6751 	8654,6 
1161,7 	9,6793 	8658,0 
1162,2 	9,6836 	8661,3 
1162,7 	9,6876 	8658,0 
1163,2 	9,6920 	8664,7 
1163,7 	9,6960 	8659,6 
1164,2 	9,7003 	8663,0 
1164,7 	9,7045 	8666,4 
1165,2 	9,7086 	8664,7 
1165,7 	9,7129 	8668,1 
1166,2 	9,7168 	8663,0 
1166,7 	9,7211 	8669,7 
1167,2 	9,7252 	8666,4 
1167,7 	9,7295 	8671,4 
1168,2 	9,7336 	8671,4 
1168,7 	9,7376 	8668,1 
1169,2 	9,7420 	8676,5 
1169,7 	9,7460 	8671,4 
1170,2 	9,7504 	8674,8 
1170,7 	9,7545 	8674,8 
1171,2 	9,7586 	8674,8 
1171,7 	9,7627 	8676,5 
1172,2 	9,7668 	8676,5 
1172,7 	9,7712 	8679,9 
1173,2 	9,7751 	8676,5 
1173,7 	9,7794 	8679,9 
1174,2 	9,7834 	8683,2 
1174,7 	9,7876 	8683,2 
1175,2 	9,7920 	8688,3 
1175,7 	9,7960 	8681,5 
1176,2 	9,8003 	8684,9 
1176,7 	9,8043 	8686,6 
1177,2 	9,8085 	8688,3 
1177,7 	9,8128 	8690,0 
1178,2 	9,8168 	8688,3 
1178,7 	9,8211 	8693,3 
1179,2 	9,8250 	8686,6 
1179,7 	9,8295 	8693,3 
1180,2 	9,8336 	8693,3 
1180,7 	9,8378 	8693,3 
1181,2 	9,8420 	8696,7 
1181,7 	9,8459 	8691,7 
1182,2 	9,8502 	8696,7 
1182,7 	9,8543 	8696,7 
1183,2 	9,8586 	8698,4 
1183,7 	9,8627 	8700,1 
1184,2 	9,8668 	8698,4 
1184,7 	9,8711 	8703,4 
1185,2 	9,8752 	8700,1 
1185,7 	9,8795 	8705,1 
1186,2 	9,8835 	8701,8 
1186,7 	9,8878 	8705,1 
1187,2 	9,8919 	8706,8 
1187,7 	9,8959 	8705,1 
1188,2 	9,9004 	8711,9 
1188,7 	9,9042 	8705,1 
1189,2 	9,9086 	8710,2 
1189,7 	9,9127 	8710,2 
1190,2 	9,9168 	8710,2 
1190,7 	9,9212 	8715,2 
1191,2 	9,9252 	8710,2 
1191,7 	9,9294 	8713,6 
1192,2 	9,9334 	8711,9 
1192,7 	9,9377 	8715,2 
1193,2 	9,9419 	8718,6 
1193,7 	9,9460 	8715,2 
1194,2 	9,9502 	8718,6 
1194,7 	9,9542 	8716,9 
1195,2 	9,9586 	8723,7 
1195,7 	9,9628 	8722,0 
1196,2 	9,9670 	8722,0 
1196,7 	9,9711 	8723,7 
1197,2 	9,9750 	8720,3 
1197,7 	9,9795 	8728,7 
1198,2 	9,9834 	8723,7 
1198,7 	9,9878 	8727,0 
1199,2 	9,9918 	8727,0 
1199,7 	9,9960 	8727,0 
1200,2 	10,000 	8730,4 
1200,7 	10,004 	8727,0 
1201,2 	10,009 	8732,1 
1201,7 	10,013 	8728,7 
1202,2 	10,017 	8732,1 
1202,7 	10,021 	8733,8 
1203,2 	10,025 	8732,1 
1203,7 	10,029 	8738,8 
1204,2 	10,033 	8733,8 
1204,7 	10,038 	8737,1 
1205,2 	10,042 	8737,1 
1205,7 	10,046 	8737,1 
1206,2 	10,050 	8742,2 
1206,7 	10,054 	8738,8 
1207,2 	10,059 	8742,2 
1207,7 	10,063 	8738,8 
1208,2 	10,067 	8745,6 
1208,7 	10,071 	8745,6 
1209,2 	10,075 	8743,9 
1209,7 	10,080 	8748,9 
1210,2 	10,083 	8743,9 
1210,7 	10,088 	8750,6 
1211,2 	10,092 	8750,6 
1211,7 	10,096 	8750,6 
1212,2 	10,100 	8750,6 
1212,7 	10,104 	8748,9 
1213,2 	10,109 	8754,0 
1213,7 	10,113 	8752,3 
1214,2 	10,117 	8755,7 
1214,7 	10,121 	8754,0 
1215,2 	10,125 	8754,0 
1215,7 	10,129 	8762,4 
1216,2 	10,133 	8757,4 
1216,7 	10,138 	8759,0 
1217,2 	10,142 	8759,0 
1217,7 	10,146 	8760,7 
1218,2 	10,150 	8760,7 
1218,7 	10,154 	8760,7 
1219,2 	10,159 	8765,8 
1219,7 	10,163 	8760,7 
1220,2 	10,167 	8767,5 
1220,7 	10,171 	8764,1 
1221,2 	10,175 	8765,8 
1221,7 	10,179 	8769,1 
1222,2 	10,184 	8765,8 
1222,7 	10,188 	8770,8 
1223,2 	10,192 	8765,8 
1223,7 	10,196 	8770,8 
1224,2 	10,200 	8772,5 
1224,7 	10,204 	8772,5 
1225,2 	10,209 	8775,9 
1225,7 	10,213 	8770,8 
1226,2 	10,217 	8777,6 
1226,7 	10,221 	8775,9 
1227,2 	10,225 	8777,6 
1227,7 	10,229 	8777,6 
1228,2 	10,233 	8775,9 
1228,7 	10,238 	8780,9 
1229,2 	10,242 	8777,6 
1229,7 	10,246 	8784,3 
1230,2 	10,250 	8779,3 
1230,7 	10,254 	8780,9 
1231,2 	10,259 	8786,0 
1231,7 	10,263 	8782,6 
1232,2 	10,267 	8787,7 
1232,7 	10,271 	8784,3 
1233,2 	10,275 	8786,0 
1233,7 	10,279 	8787,7 
1234,2 	10,283 	8787,7 
1234,7 	10,288 	8791,1 
1235,2 	10,292 	8787,7 
1235,7 	10,296 	8792,7 
1236,2 	10,300 	8791,1 
1236,7 	10,304 	8794,4 
1237,2 	10,309 	8796,1 
1237,7 	10,313 	8792,7 
1238,2 	10,317 	8797,8 
1238,7 	10,321 	8794,4 
1239,2 	10,325 	8797,8 
1239,7 	10,329 	8799,5 
1240,2 	10,334 	8797,8 
1240,7 	10,338 	8801,2 
1241,2 	10,342 	8799,5 
1241,7 	10,346 	8804,5 
1242,2 	10,350 	8801,2 
1242,7 	10,354 	8802,8 
1243,2 	10,359 	8804,5 
1243,7 	10,363 	8802,8 
1244,2 	10,367 	8807,9 
1244,7 	10,371 	8804,5 
1245,2 	10,375 	8809,6 
1245,7 	10,379 	8809,6 
1246,2 	10,384 	8809,6 
1246,7 	10,388 	8811,3 
1247,2 	10,392 	8811,3 
1247,7 	10,396 	8814,6 
1248,2 	10,400 	8811,3 
1248,7 	10,404 	8814,6 
1249,2 	10,408 	8813,0 
1249,7 	10,413 	8814,6 
1250,2 	10,417 	8819,7 
1250,7 	10,421 	8814,6 
1251,2 	10,425 	8819,7 
1251,7 	10,429 	8816,3 
1252,2 	10,434 	8819,7 
1252,7 	10,438 	8821,4 
1253,2 	10,442 	8821,4 
1253,7 	10,446 	8823,1 
1254,2 	10,450 	8818,0 
1254,7 	10,454 	8824,7 
1255,2 	10,458 	8824,7 
1255,7 	10,463 	8824,7 
1256,2 	10,467 	8826,4 
1256,7 	10,471 	8823,1 
1257,2 	10,475 	8833,2 
1257,7 	10,479 	8828,1 
1258,2 	10,484 	8829,8 
1258,7 	10,488 	8831,5 
1259,2 	10,492 	8829,8 
1259,7 	10,496 	8834,9 
1260,2 	10,500 	8831,5 
1260,7 	10,504 	8836,5 
1261,2 	10,508 	8833,2 
1261,7 	10,513 	8836,5 
1262,2 	10,517 	8838,2 
1262,7 	10,521 	8836,5 
1263,2 	10,525 	8839,9 
1263,7 	10,529 	8836,5 
1264,2 	10,534 	8838,2 
1264,7 	10,538 	8838,2 
1265,2 	10,542 	8839,9 
1265,7 	10,546 	8845,0 
1266,2 	10,550 	8841,6 
1266,7 	10,554 	8846,6 
1267,2 	10,558 	8841,6 
1267,7 	10,563 	8845,0 
1268,2 	10,567 	8848,3 
1268,7 	10,571 	8846,6 
1269,2 	10,575 	8850,0 
1269,7 	10,579 	8845,0 
1270,2 	10,584 	8851,7 
1270,7 	10,588 	8848,3 
1271,2 	10,592 	8850,0 
1271,7 	10,596 	8851,7 
1272,2 	10,600 	8848,3 
1272,7 	10,604 	8856,8 
1273,2 	10,608 	8851,7 
1273,7 	10,613 	8853,4 
1274,2 	10,617 	8856,8 
1274,7 	10,621 	8853,4 
1275,2 	10,625 	8856,8 
1275,7 	10,629 	8856,8 
1276,2 	10,634 	8861,8 
1276,7 	10,638 	8856,8 
1277,2 	10,642 	8860,1 
1277,7 	10,646 	8863,5 
1278,2 	10,650 	8861,8 
1278,7 	10,655 	8866,9 
1279,2 	10,658 	8860,1 
1279,7 	10,663 	8863,5 
1280,2 	10,667 	8863,5 
1280,7 	10,671 	8865,2 
1281,2 	10,675 	8866,9 
1281,7 	10,679 	8866,9 
1282,2 	10,684 	8870,2 
1282,7 	10,688 	8865,2 
1283,2 	10,692 	8871,9 
1283,7 	10,696 	8871,9 
1284,2 	10,700 	8870,2 
1284,7 	10,705 	8873,6 
1285,2 	10,708 	8870,2 
1285,7 	10,713 	8875,3 
1286,2 	10,717 	8873,6 
1286,7 	10,721 	8875,3 
1287,2 	10,725 	8873,6 
1287,7 	10,729 	8875,3 
1288,2 	10,734 	8880,3 
1288,7 	10,738 	8877,0 
1289,2 	10,742 	8880,3 
1289,7 	10,746 	8878,7 
1290,2 	10,750 	8880,3 
1290,7 	10,754 	8882,0 
1291,2 	10,758 	8878,7 
1291,7 	10,763 	8887,1 
1292,2 	10,767 	8882,0 
1292,7 	10,771 	8883,7 
1293,2 	10,775 	8883,7 
1293,7 	10,779 	8885,4 
1294,2 	10,784 	8890,5 
1294,7 	10,788 	8883,7 
1295,2 	10,792 	8888,8 
1295,7 	10,796 	8887,1 
1296,2 	10,800 	8890,5 
1296,7 	10,804 	8892,1 
1297,2 	10,808 	8890,5 
1297,7 	10,813 	8892,1 
1298,2 	10,817 	8890,5 
1298,7 	10,821 	8897,2 
1299,2 	10,825 	8895,5 
1299,7 	10,829 	8893,8 
1300,2 	10,834 	8897,2 
1300,7 	10,838 	8892,1 
1301,2 	10,842 	8898,9 
1301,7 	10,846 	8897,2 
1302,2 	10,850 	8898,9 
1302,7 	10,854 	8898,9 
1303,2 	10,858 	8898,9 
1303,7 	10,863 	8903,9 
1304,2 	10,867 	8900,6 
1304,7 	10,871 	8902,2 
1305,2 	10,875 	8900,6 
1305,7 	10,879 	8902,2 
1306,2 	10,884 	8903,9 
1306,7 	10,888 	8903,9 
1307,2 	10,892 	8909,0 
1307,7 	10,896 	8905,6 
1308,2 	10,900 	8907,3 
1308,7 	10,904 	8909,0 
1309,2 	10,908 	8909,0 
1309,7 	10,913 	8914,0 
1310,2 	10,917 	8910,7 
1310,7 	10,921 	8912,4 
1311,2 	10,925 	8910,7 
1311,7 	10,929 	8915,7 
1312,2 	10,933 	8915,7 
1312,7 	10,938 	8914,0 
1313,2 	10,942 	8919,1 
1313,7 	10,946 	8914,0 
1314,2 	10,950 	8919,1 
1314,7 	10,954 	8919,1 
1315,2 	10,959 	8919,1 
1315,7 	10,963 	8919,1 
1316,2 	10,967 	8919,1 
1316,7 	10,971 	8922,5 
1317,2 	10,975 	8920,8 
1317,7 	10,979 	8924,1 
1318,2 	10,983 	8924,1 
1318,7 	10,988 	8922,5 
1319,2 	10,992 	8930,9 
1319,7 	10,996 	8924,1 
1320,2 	11,000 	8927,5 
1320,7 	11,004 	8925,8 
1321,2 	11,008 	8927,5 
1321,7 	11,013 	8929,2 
1322,2 	11,017 	8927,5 
1322,7 	11,021 	8932,6 
1323,2 	11,025 	8927,5 
1323,7 	11,029 	8934,3 
1324,2 	11,033 	8930,9 
1324,7 	11,038 	8932,6 
1325,2 	11,042 	8937,6 
1325,7 	11,046 	8932,6 
1326,2 	11,050 	8937,6 
1326,7 	11,054 	8934,3 
1327,2 	11,058 	8935,9 
1327,7 	11,063 	8939,3 
1328,2 	11,067 	8937,6 
1328,7 	11,071 	8941,0 
1329,2 	11,075 	8937,6 
1329,7 	11,079 	8944,4 
1330,2 	11,083 	8941,0 
1330,7 	11,088 	8942,7 
1331,2 	11,092 	8944,4 
1331,7 	11,096 	8941,0 
1332,2 	11,100 	8946,0 
1332,7 	11,104 	8944,4 
1333,2 	11,109 	8947,7 
1333,7 	11,113 	8944,4 
1334,2 	11,117 	8946,0 
1334,7 	11,121 	8949,4 
1335,2 	11,125 	8944,4 
1335,7 	11,130 	8951,1 
1336,2 	11,133 	8947,7 
1336,7 	11,138 	8949,4 
1337,2 	11,142 	8951,1 
1337,7 	11,146 	8951,1 
1338,2 	11,150 	8954,5 
1338,7 	11,154 	8949,4 
1339,2 	11,159 	8956,2 
1339,7 	11,162 	8952,8 
1340,2 	11,167 	8956,2 
1340,7 	11,171 	8959,5 
1341,2 	11,175 	8954,5 
1341,7 	11,179 	8959,5 
1342,2 	11,183 	8956,2 
1342,7 	11,188 	8959,5 
1343,2 	11,192 	8962,9 
1343,7 	11,196 	8961,2 
1344,2 	11,200 	8962,9 
1344,7 	11,204 	8959,5 
1345,2 	11,209 	8964,6 
1345,7 	11,213 	8962,9 
1346,2 	11,217 	8964,6 
1346,7 	11,221 	8964,6 
1347,2 	11,225 	8962,9 
1347,7 	11,229 	8969,6 
1348,2 	11,233 	8964,6 
1348,7 	11,238 	8968,0 
1349,2 	11,242 	8969,6 
1349,7 	11,246 	8968,0 
1350,2 	11,250 	8971,3 
1350,7 	11,254 	8968,0 
1351,2 	11,259 	8973,0 
1351,7 	11,263 	8969,6 
1352,2 	11,267 	8973,0 
1352,7 	11,271 	8973,0 
1353,2 	11,275 	8973,0 
1353,7 	11,280 	8979,7 
1354,2 	11,283 	8973,0 
1354,7 	11,288 	8978,1 
1355,2 	11,292 	8976,4 
1355,7 	11,296 	8978,1 
1356,2 	11,300 	8979,7 
1356,7 	11,304 	8978,1 
1357,2 	11,309 	8981,4 
1357,7 	11,312 	8976,4 
1358,2 	11,317 	8983,1 
1358,7 	11,321 	8981,4 
1359,2 	11,325 	8981,4 
1359,7 	11,329 	8984,8 
1360,2 	11,333 	8981,4 
1360,7 	11,338 	8989,9 
1361,2 	11,342 	8986,5 
1361,7 	11,346 	8984,8 
1362,2 	11,350 	8986,5 
1362,7 	11,354 	8984,8 
1363,2 	11,359 	8989,9 
1363,7 	11,363 	8986,5 
1364,2 	11,367 	8991,5 
1364,7 	11,371 	8988,2 
1365,2 	11,375 	8991,5 
1365,7 	11,379 	8991,5 
1366,2 	11,383 	8989,9 
1366,7 	11,388 	8994,9 
1367,2 	11,392 	8991,5 
1367,7 	11,396 	8993,2 
1368,2 	11,400 	8993,2 
1368,7 	11,404 	8994,9 
1369,2 	11,409 	8998,3 
1369,7 	11,413 	8993,2 
1370,2 	11,417 	9000,0 
1370,7 	11,421 	8996,6 
1371,2 	11,425 	8998,3 
1371,7 	11,429 	9003,3 
1372,2 	11,433 	9000,0 
1372,7 	11,438 	9003,3 
1373,2 	11,442 	8998,3 
1373,7 	11,446 	9005,0 
1374,2 	11,450 	9003,3 
1374,7 	11,454 	9005,0 
1375,2 	11,459 	9006,7 
1375,7 	11,462 	9003,3 
1376,2 	11,467 	9010,1 
1376,7 	11,471 	9006,7 
1377,2 	11,475 	9006,7 
1377,7 	11,479 	9008,4 
1378,2 	11,483 	9006,7 
1378,7 	11,488 	9010,1 
1379,2 	11,492 	9008,4 
1379,7 	11,496 	9011,8 
1380,2 	11,500 	9008,4 
1380,7 	11,504 	9011,8 
1381,2 	11,508 	9015,1 
1381,7 	11,513 	9011,8 
1382,2 	11,517 	9016,8 
1382,7 	11,521 	9011,8 
1383,2 	11,525 	9015,1 
1383,7 	11,529 	9016,8 
1384,2 	11,533 	9016,8 
1384,7 	11,538 	9020,2 
1385,2 	11,542 	9016,8 
1385,7 	11,546 	9020,2 
1386,2 	11,550 	9016,8 
1386,7 	11,554 	9021,9 
1387,2 	11,559 	9021,9 
1387,7 	11,563 	9020,2 
1388,2 	11,567 	9023,5 
1388,7 	11,571 	9020,2 
1389,2 	11,575 	9025,2 
1389,7 	11,579 	9025,2 
1390,2 	11,583 	9025,2 
1390,7 	11,588 	9026,9 
1391,2 	11,592 	9025,2 
1391,7 	11,596 	9028,6 
1392,2 	11,600 	9025,2 
1392,7 	11,604 	9028,6 
1393,2 	11,609 	9026,9 
1393,7 	11,613 	9026,9 
1394,2 	11,617 	9032,0 
1394,7 	11,621 	9028,6 
1395,2 	11,625 	9035,3 
1395,7 	11,629 	9030,3 
1396,2 	11,633 	9032,0 
1396,7 	11,638 	9035,3 
1397,2 	11,642 	9033,7 
1397,7 	11,646 	9037,0 
1398,2 	11,650 	9032,0 
1398,7 	11,654 	9033,7 
1399,2 	11,658 	9035,3 
1399,7 	11,663 	9035,3 
1400,2 	11,667 	9038,7 
1400,7 	11,671 	9035,3 
1401,2 	11,675 	9038,7 
1401,7 	11,679 	9037,0 
1402,2 	11,684 	9042,1 
1402,7 	11,688 	9042,1 
1403,2 	11,692 	9040,4 
1403,7 	11,696 	9042,1 
1404,2 	11,700 	9038,7 
1404,7 	11,704 	9045,4 
1405,2 	11,708 	9043,8 
1405,7 	11,713 	9045,4 
1406,2 	11,717 	9045,4 
1406,7 	11,721 	9042,1 
1407,2 	11,725 	9048,8 
1407,7 	11,729 	9045,4 
1408,2 	11,734 	9047,1 
1408,7 	11,738 	9047,1 
1409,2 	11,742 	9047,1 
1409,7 	11,746 	9048,8 
1410,2 	11,750 	9047,1 
1410,7 	11,754 	9052,2 
1411,2 	11,758 	9050,5 
1411,7 	11,763 	9052,2 
1412,2 	11,767 	9053,9 
1412,7 	11,771 	9052,2 
1413,2 	11,775 	9057,2 
1413,7 	11,779 	9052,2 
1414,2 	11,784 	9055,6 
1414,7 	11,788 	9052,2 
1415,2 	11,792 	9055,6 
1415,7 	11,796 	9058,9 
1416,2 	11,800 	9055,6 
1416,7 	11,804 	9060,6 
1417,2 	11,808 	9055,6 
1417,7 	11,813 	9058,9 
1418,2 	11,817 	9060,6 
1418,7 	11,821 	9058,9 
1419,2 	11,825 	9060,6 
1419,7 	11,829 	9057,2 
1420,2 	11,834 	9064,0 
1420,7 	11,838 	9062,3 
1421,2 	11,842 	9062,3 
1421,7 	11,846 	9062,3 
1422,2 	11,850 	9060,6 
1422,7 	11,854 	9070,7 
1423,2 	11,858 	9064,0 
1423,7 	11,863 	9065,7 
1424,2 	11,867 	9067,4 
1424,7 	11,871 	9065,7 
1425,2 	11,875 	9067,4 
1425,7 	11,879 	9067,4 
1426,2 	11,884 	9072,4 
1426,7 	11,888 	9065,7 
1427,2 	11,892 	9070,7 
1427,7 	11,896 	9070,7 
1428,2 	11,900 	9070,7 
1428,7 	11,904 	9074,1 
1429,2 	11,908 	9069,0 
1429,7 	11,913 	9072,4 
1430,2 	11,917 	9070,7 
1430,7 	11,921 	9072,4 
1431,2 	11,925 	9075,8 
1431,7 	11,929 	9074,1 
1432,2 	11,934 	9077,5 
1432,7 	11,938 	9072,4 
1433,2 	11,942 	9077,5 
1433,7 	11,946 	9077,5 
1434,2 	11,950 	9077,5 
1434,7 	11,954 	9079,1 
1435,2 	11,958 	9075,8 
1435,7 	11,963 	9080,8 
1436,2 	11,967 	9077,5 
1436,7 	11,971 	9082,5 
1437,2 	11,975 	9080,8 
1437,7 	11,979 	9080,8 
1438,2 	11,984 	9084,2 
1438,7 	11,988 	9080,8 
1439,2 	11,992 	9085,9 
1439,7 	11,996 	9084,2 
1440,2 	12,000 	9082,5 
1440,7 	12,004 	9085,9 
1441,2 	12,008 	9085,9 
1441,7 	12,013 	9089,3 
1442,2 	12,017 	9084,2 
1442,7 	12,021 	9089,3 
1443,2 	12,025 	9087,6 
1443,7 	12,029 	9090,9 
1444,2 	12,034 	9092,6 
1444,7 	12,038 	9085,9 
1445,2 	12,042 	9092,6 
1445,7 	12,046 	9089,3 
1446,2 	12,050 	9092,6 
1446,7 	12,054 	9094,3 
1447,2 	12,058 	9092,6 
1447,7 	12,063 	9096,0 
1448,2 	12,067 	9090,9 
1448,7 	12,071 	9096,0 
1449,2 	12,075 	9094,3 
1449,7 	12,079 	9096,0 
1450,2 	12,084 	9096,0 
1450,7 	12,088 	9094,3 
1451,2 	12,092 	9099,4 
1451,7 	12,096 	9096,0 
1452,2 	12,100 	9099,4 
1452,7 	12,104 	9099,4 
1453,2 	12,108 	9099,4 
1453,7 	12,113 	9101,0 
1454,2 	12,117 	9101,0 
1454,7 	12,121 	9104,4 
1455,2 	12,125 	9101,0 
1455,7 	12,129 	9102,7 
1456,2 	12,133 	9102,7 
1456,7 	12,138 	9101,0 
1457,2 	12,142 	9107,8 
1457,7 	12,146 	9101,0 
1458,2 	12,150 	9106,1 
1458,7 	12,154 	9106,1 
1459,2 	12,158 	9106,1 
1459,7 	12,163 	9109,5 
1460,2 	12,167 	9106,1 
1460,7 	12,171 	9109,5 
1461,2 	12,175 	9104,4 
1461,7 	12,179 	9111,2 
1462,2 	12,183 	9111,2 
1462,7 	12,188 	9109,5 
1463,2 	12,192 	9112,8 
1463,7 	12,196 	9107,8 
1464,2 	12,200 	9116,2 
1464,7 	12,204 	9114,5 
1465,2 	12,209 	9111,2 
1465,7 	12,213 	9114,5 
1466,2 	12,217 	9111,2 
1466,7 	12,221 	9117,9 
1467,2 	12,225 	9111,2 
1467,7 	12,229 	9117,9 
1468,2 	12,233 	9116,2 
1468,7 	12,238 	9116,2 
1469,2 	12,242 	9119,6 
1469,7 	12,246 	9116,2 
1470,2 	12,250 	9119,6 
1470,7 	12,254 	9117,9 
1471,2 	12,259 	9117,9 
1471,7 	12,263 	9119,6 
1472,2 	12,267 	9119,6 
1472,7 	12,271 	9122,9 
1473,2 	12,275 	9119,6 
1473,7 	12,279 	9124,6 
1474,2 	12,283 	9122,9 
1474,7 	12,288 	9122,9 
1475,2 	12,292 	9128,0 
1475,7 	12,296 	9122,9 
1476,2 	12,300 	9128,0 
1476,7 	12,304 	9121,3 
1477,2 	12,308 	9126,3 
1477,7 	12,313 	9126,3 
1478,2 	12,317 	9126,3 
1478,7 	12,321 	9128,0 
1479,2 	12,325 	9122,9 
1479,7 	12,329 	9131,4 
1480,2 	12,333 	9128,0 
1480,7 	12,338 	9128,0 
1481,2 	12,342 	9129,7 
1481,7 	12,346 	9128,0 
1482,2 	12,350 	9131,4 
1482,7 	12,354 	9131,4 
1483,2 	12,359 	9133,1 
1483,7 	12,363 	9129,7 
1484,2 	12,367 	9133,1 
1484,7 	12,371 	9136,4 
1485,2 	12,375 	9133,1 
1485,7 	12,379 	9136,4 
1486,2 	12,383 	9131,4 
1486,7 	12,388 	9134,7 
1487,2 	12,392 	9136,4 
1487,7 	12,396 	9134,7 
1488,2 	12,400 	9138,1 
1488,7 	12,404 	9134,7 
1489,2 	12,409 	9139,8 
1489,7 	12,413 	9136,4 
1490,2 	12,417 	9139,8 
1490,7 	12,421 	9141,5 
1491,2 	12,425 	9138,1 
1491,7 	12,429 	9141,5 
1492,2 	12,433 	9136,4 
1492,7 	12,438 	9141,5 
1493,2 	12,442 	9141,5 
1493,7 	12,446 	9143,2 
1494,2 	12,450 	9143,2 
1494,7 	12,454 	9141,5 
1495,2 	12,459 	9144,8 
1495,7 	12,463 	9143,2 
1496,2 	12,467 	9144,8 
1496,7 	12,471 	9144,8 
1497,2 	12,475 	9143,2 
1497,7 	12,479 	9148,2 
1498,2 	12,483 	9143,2 
1498,7 	12,488 	9149,9 
1499,2 	12,492 	9144,8 
1499,7 	12,496 	9146,5 
1500,2 	12,500 	9148,2 
1500,7 	12,504 	9146,5 
1501,2 	12,509 	9151,6 
1501,7 	12,513 	9146,5 
1502,2 	12,517 	9148,2 
1502,7 	12,521 	9148,2 
1503,2 	12,525 	9149,9 
1503,7 	12,529 	9153,3 
1504,2 	12,533 	9148,2 
1504,7 	12,538 	9155,0 
1505,2 	12,542 	9151,6 
1505,7 	12,546 	9155,0 
1506,2 	12,550 	9156,6 
1506,7 	12,554 	9153,3 
1507,2 	12,559 	9156,6 
1507,7 	12,562 	9151,6 
1508,2 	12,567 	9158,3 
1508,7 	12,571 	9156,6 
1509,2 	12,575 	9156,6 
1509,7 	12,579 	9158,3 
1510,2 	12,583 	9156,6 
1510,7 	12,588 	9160,0 
1511,2 	12,592 	9156,6 
1511,7 	12,596 	9160,0 
1512,2 	12,600 	9158,3 
1512,7 	12,604 	9158,3 
1513,2 	12,609 	9161,7 
1513,7 	12,612 	9158,3 
1514,2 	12,617 	9163,4 
1514,7 	12,621 	9161,7 
1515,2 	12,625 	9161,7 
1515,7 	12,629 	9163,4 
1516,2 	12,633 	9161,7 
1516,7 	12,638 	9166,8 
1517,2 	12,642 	9161,7 
1517,7 	12,646 	9165,1 
1518,2 	12,650 	9163,4 
1518,7 	12,654 	9165,1 
1519,2 	12,658 	9168,4 
1519,7 	12,663 	9165,1 
1520,2 	12,667 	9168,4 
1520,7 	12,671 	9165,1 
1521,2 	12,675 	9168,4 
1521,7 	12,679 	9170,1 
1522,2 	12,684 	9166,8 
1522,7 	12,688 	9170,1 
1523,2 	12,692 	9166,8 
1523,7 	12,696 	9171,8 
1524,2 	12,700 	9170,1 
1524,7 	12,704 	9171,8 
1525,2 	12,708 	9171,8 
1525,7 	12,713 	9170,1 
1526,2 	12,717 	9178,5 
1526,7 	12,721 	9171,8 
1527,2 	12,725 	9173,5 
1527,7 	12,729 	9173,5 
1528,2 	12,733 	9171,8 
1528,7 	12,738 	9175,2 
1529,2 	12,742 	9171,8 
1529,7 	12,746 	9176,9 
1530,2 	12,750 	9173,5 
1530,7 	12,754 	9176,9 
1531,2 	12,758 	9176,9 
1531,7 	12,763 	9175,2 
1532,2 	12,767 	9178,5 
1532,7 	12,771 	9175,2 
1533,2 	12,775 	9176,9 
1533,7 	12,779 	9176,9 
1534,2 	12,783 	9178,5 
1534,7 	12,788 	9180,2 
1535,2 	12,792 	9176,9 
1535,7 	12,796 	9181,9 
1536,2 	12,800 	9176,9 
1536,7 	12,804 	9181,9 
1537,2 	12,808 	9181,9 
1537,7 	12,813 	9181,9 
1538,2 	12,817 	9183,6 
1538,7 	12,821 	9178,5 
1539,2 	12,825 	9185,3 
1539,7 	12,829 	9183,6 
1540,2 	12,834 	9185,3 
1540,7 	12,838 	9183,6 
1541,2 	12,842 	9183,6 
1541,7 	12,846 	9187,0 
1542,2 	12,850 	9183,6 
1542,7 	12,854 	9187,0 
1543,2 	12,858 	9185,3 
1543,7 	12,863 	9183,6 
1544,2 	12,867 	9187,0 
1544,7 	12,871 	9187,0 
1545,2 	12,875 	9190,3 
1545,7 	12,879 	9185,3 
1546,2 	12,883 	9190,3 
1546,7 	12,887 	9190,3 
1547,2 	12,892 	9190,3 
1547,7 	12,896 	9195,4 
1548,2 	12,900 	9187,0 
1548,7 	12,904 	9192,0 
1549,2 	12,908 	9190,3 
1549,7 	12,913 	9192,0 
1550,2 	12,917 	9195,4 
1550,7 	12,921 	9190,3 
1551,2 	12,925 	9195,4 
1551,7 	12,929 	9192,0 
1552,2 	12,933 	9195,4 
1552,7 	12,938 	9193,7 
1553,2 	12,942 	9193,7 
1553,7 	12,946 	9197,1 
1554,2 	12,950 	9192,0 
1554,7 	12,954 	9198,8 
1555,2 	12,958 	9195,4 
1555,7 	12,963 	9197,1 
1556,2 	12,967 	9198,8 
1556,7 	12,971 	9195,4 
1557,2 	12,975 	9200,4 
1557,7 	12,979 	9197,1 
1558,2 	12,984 	9200,4 
1558,7 	12,988 	9197,1 
1559,2 	12,992 	9198,8 
1559,7 	12,996 	9200,4 
1560,2 	13,000 	9197,1 
1560,7 	13,004 	9205,5 
1561,2 	13,008 	9197,1 
1561,7 	13,013 	9200,4 
1562,2 	13,017 	9202,1 
1562,7 	13,021 	9202,1 
1563,2 	13,025 	9203,8 
1563,7 	13,029 	9202,1 
1564,2 	13,034 	9202,1 
1564,7 	13,037 	9200,4 
1565,2 	13,042 	9205,5 
1565,7 	13,046 	9203,8 
1566,2 	13,050 	9202,1 
1566,7 	13,054 	9208,9 
1567,2 	13,058 	9203,8 
1567,7 	13,063 	9208,9 
1568,2 	13,067 	9207,2 
1568,7 	13,071 	9207,2 
1569,2 	13,075 	9208,9 
1569,7 	13,079 	9203,8 
1570,2 	13,083 	9210,6 
1570,7 	13,088 	9207,2 
1571,2 	13,092 	9210,6 
1571,7 	13,096 	9208,9 
1572,2 	13,100 	9208,9 
1572,7 	13,104 	9212,2 
1573,2 	13,108 	9207,2 
1573,7 	13,113 	9210,6 
1574,2 	13,117 	9208,9 
1574,7 	13,121 	9210,6 
1575,2 	13,125 	9212,2 
1575,7 	13,129 	9212,2 
1576,2 	13,134 	9215,6 
1576,7 	13,138 	9210,6 
1577,2 	13,142 	9215,6 
1577,7 	13,146 	9212,2 
1578,2 	13,150 	9212,2 
1578,7 	13,154 	9217,3 
1579,2 	13,158 	9213,9 
1579,7 	13,163 	9217,3 
1580,2 	13,167 	9212,2 
1580,7 	13,171 	9217,3 
1581,2 	13,175 	9215,6 
1581,7 	13,179 	9215,6 
1582,2 	13,184 	9219,0 
1582,7 	13,187 	9212,2 
1583,2 	13,192 	9219,0 
1583,7 	13,196 	9217,3 
1584,2 	13,200 	9217,3 
1584,7 	13,204 	9219,0 
1585,2 	13,208 	9215,6 
1585,7 	13,213 	9220,7 
1586,2 	13,217 	9219,0 
1586,7 	13,221 	9219,0 
1587,2 	13,225 	9219,0 
1587,7 	13,229 	9219,0 
1588,2 	13,233 	9225,7 
1588,7 	13,238 	9220,7 
1589,2 	13,242 	9224,0 
1589,7 	13,246 	9220,7 
1590,2 	13,250 	9222,3 
1590,7 	13,254 	9222,3 
1591,2 	13,258 	9222,3 
1591,7 	13,263 	9225,7 
1592,2 	13,267 	9222,3 
1592,7 	13,271 	9225,7 
1593,2 	13,275 	9222,3 
1593,7 	13,279 	9225,7 
1594,2 	13,284 	9227,4 
1594,7 	13,288 	9222,3 
1595,2 	13,292 	9227,4 
1595,7 	13,296 	9222,3 
1596,2 	13,300 	9225,7 
1596,7 	13,304 	9227,4 
1597,2 	13,308 	9225,7 
1597,7 	13,313 	9227,4 
1598,2 	13,317 	9225,7 
1598,7 	13,321 	9229,1 
1599,2 	13,325 	9227,4 
1599,7 	13,329 	9229,1 
1600,2 	13,334 	9227,4 
1600,7 	13,337 	9225,7 
1601,2 	13,342 	9230,8 
1601,7 	13,346 	9227,4 
1602,2 	13,350 	9232,5 
1602,7 	13,354 	9230,8 
1603,2 	13,358 	9229,1 
1603,7 	13,363 	9232,5 
1604,2 	13,367 	9230,8 
1604,7 	13,371 	9234,1 
1605,2 	13,375 	9230,8 
1605,7 	13,379 	9232,5 
1606,2 	13,383 	9232,5 
1606,7 	13,388 	9234,1 
1607,2 	13,392 	9235,8 
1607,7 	13,396 	9230,8 
1608,2 	13,400 	9235,8 
1608,7 	13,404 	9234,1 
1609,2 	13,408 	9237,5 
1609,7 	13,413 	9237,5 
1610,2 	13,417 	9234,1 
1610,7 	13,421 	9237,5 
1611,2 	13,425 	9232,5 
1611,7 	13,429 	9239,2 
1612,2 	13,433 	9237,5 
1612,7 	13,438 	9237,5 
1613,2 	13,442 	9239,2 
1613,7 	13,446 	9235,8 
1614,2 	13,450 	9239,2 
1614,7 	13,454 	9237,5 
1615,2 	13,458 	9237,5 
1615,7 	13,463 	9237,5 
1616,2 	13,467 	9237,5 
1616,7 	13,471 	9240,9 
1617,2 	13,475 	9237,5 
1617,7 	13,479 	9240,9 
1618,2 	13,483 	9240,9 
1618,7 	13,488 	9239,2 
1619,2 	13,492 	9242,6 
1619,7 	13,496 	9240,9 
1620,2 	13,500 	9245,9 
1620,7 	13,504 	9240,9 
1621,2 	13,508 	9242,6 
1621,7 	13,513 	9240,9 
1622,2 	13,517 	9242,6 
1622,7 	13,521 	9245,9 
1623,2 	13,525 	9240,9 
1623,7 	13,529 	9245,9 
1624,2 	13,533 	9242,6 
1624,7 	13,538 	9245,9 
1625,2 	13,542 	9247,6 
1625,7 	13,546 	9244,3 
1626,2 	13,550 	9245,9 
1626,7 	13,554 	9242,6 
1627,2 	13,558 	9247,6 
1627,7 	13,562 	9245,9 
1628,2 	13,567 	9245,9 
1628,7 	13,571 	9247,6 
1629,2 	13,575 	9244,3 
1629,7 	13,579 	9252,7 
1630,2 	13,583 	9247,6 
1630,7 	13,588 	9247,6 
1631,2 	13,592 	9247,6 
1631,7 	13,596 	9245,9 
1632,2 	13,600 	9249,3 
1632,7 	13,604 	9247,6 
1633,2 	13,608 	9251,0 
1633,7 	13,612 	9247,6 
1634,2 	13,617 	9251,0 
1634,7 	13,621 	9251,0 
1635,2 	13,625 	9249,3 
1635,7 	13,629 	9254,4 
1636,2 	13,633 	9249,3 
1636,7 	13,638 	9251,0 
1637,2 	13,642 	9249,3 
1637,7 	13,646 	9251,0 
1638,2 	13,650 	9254,4 
1638,7 	13,654 	9251,0 
1639,2 	13,658 	9254,4 
1639,7 	13,662 	9252,7 
1640,2 	13,667 	9254,4 
1640,7 	13,671 	9254,4 
1641,2 	13,675 	9252,7 
1641,7 	13,679 	9257,7 
1642,2 	13,683 	9251,0 
1642,7 	13,688 	9257,7 
1643,2 	13,692 	9256,0 
1643,7 	13,696 	9256,0 
1644,2 	13,700 	9256,0 
1644,7 	13,704 	9254,4 
1645,2 	13,709 	9259,4 
1645,7 	13,713 	9256,0 
1646,2 	13,717 	9257,7 
1646,7 	13,721 	9257,7 
1647,2 	13,725 	9256,0 
1647,7 	13,729 	9257,7 
1648,2 	13,733 	9257,7 
1648,7 	13,738 	9259,4 
1649,2 	13,742 	9256,0 
1649,7 	13,746 	9259,4 
1650,2 	13,750 	9261,1 
1650,7 	13,754 	9259,4 
1651,2 	13,759 	9262,8 
1651,7 	13,762 	9257,7 
1652,2 	13,767 	9262,8 
1652,7 	13,771 	9257,7 
1653,2 	13,775 	9259,4 
1653,7 	13,779 	9264,5 
1654,2 	13,783 	9259,4 
1654,7 	13,788 	9264,5 
1655,2 	13,792 	9259,4 
1655,7 	13,796 	9262,8 
1656,2 	13,800 	9262,8 
1656,7 	13,804 	9262,8 
1657,2 	13,809 	9264,5 
1657,7 	13,812 	9259,4 
1658,2 	13,817 	9264,5 
1658,7 	13,821 	9262,8 
1659,2 	13,825 	9264,5 
1659,7 	13,829 	9264,5 
1660,2 	13,833 	9262,8 
1660,7 	13,838 	9266,2 
1661,2 	13,842 	9262,8 
1661,7 	13,846 	9266,2 
1662,2 	13,850 	9264,5 
1662,7 	13,854 	9264,5 
1663,2 	13,858 	9266,2 
1663,7 	13,862 	9264,5 
1664,2 	13,867 	9269,5 
1664,7 	13,871 	9262,8 
1665,2 	13,875 	9266,2 
1665,7 	13,879 	9266,2 
1666,2 	13,883 	9266,2 
1666,7 	13,888 	9269,5 
1667,2 	13,892 	9266,2 
1667,7 	13,896 	9266,2 
1668,2 	13,900 	9264,5 
1668,7 	13,904 	9267,8 
1669,2 	13,908 	9269,5 
1669,7 	13,912 	9266,2 
1670,2 	13,917 	9271,2 
1670,7 	13,921 	9266,2 
1671,2 	13,925 	9272,9 
1671,7 	13,929 	9271,2 
1672,2 	13,933 	9269,5 
1672,7 	13,938 	9271,2 
1673,2 	13,942 	9266,2 
1673,7 	13,946 	9272,9 
1674,2 	13,950 	9267,8 
1674,7 	13,954 	9272,9 
1675,2 	13,958 	9271,2 
1675,7 	13,962 	9271,2 
1676,2 	13,967 	9274,6 
1676,7 	13,971 	9271,2 
1677,2 	13,975 	9272,9 
1677,7 	13,979 	9272,9 
1678,2 	13,983 	9272,9 
1678,7 	13,988 	9272,9 
1679,2 	13,992 	9272,9 
1679,7 	13,996 	9276,3 
1680,2 	14,000 	9272,9 
1680,7 	14,004 	9274,6 
1681,2 	14,008 	9274,6 
1681,7 	14,013 	9272,9 
1682,2 	14,017 	9277,9 
1682,7 	14,021 	9272,9 
1683,2 	14,025 	9276,3 
1683,7 	14,029 	9272,9 
1684,2 	14,033 	9276,3 
1684,7 	14,038 	9276,3 
1685,2 	14,042 	9276,3 
1685,7 	14,046 	9279,6 
1686,2 	14,050 	9272,9 
1686,7 	14,054 	9277,9 
1687,2 	14,058 	9277,9 
1687,7 	14,063 	9277,9 
1688,2 	14,067 	9277,9 
1688,7 	14,071 	9274,6 
1689,2 	14,075 	9279,6 
1689,7 	14,079 	9277,9 
1690,2 	14,083 	9279,6 
1690,7 	14,088 	9277,9 
1691,2 	14,092 	9277,9 
1691,7 	14,096 	9284,7 
1692,2 	14,100 	9277,9 
1692,7 	14,104 	9281,3 
1693,2 	14,108 	9277,9 
1693,7 	14,113 	9279,6 
1694,2 	14,117 	9281,3 
1694,7 	14,121 	9277,9 
1695,2 	14,125 	9283,0 
1695,7 	14,129 	9277,9 
1696,2 	14,133 	9281,3 
1696,7 	14,137 	9279,6 
1697,2 	14,142 	9281,3 
1697,7 	14,146 	9284,7 
1698,2 	14,150 	9281,3 
1698,7 	14,154 	9283,0 
1699,2 	14,158 	9277,9 
1699,7 	14,163 	9281,3 
1700,2 	14,167 	9284,7 
1700,7 	14,171 	9281,3 
1701,2 	14,175 	9284,7 
1701,7 	14,179 	9279,6 
1702,2 	14,183 	9284,7 
1702,7 	14,188 	9283,0 
1703,2 	14,192 	9283,0 
1703,7 	14,196 	9284,7 
1704,2 	14,200 	9281,3 
1704,7 	14,204 	9286,4 
1705,2 	14,208 	9283,0 
1705,7 	14,213 	9286,4 
1706,2 	14,217 	9286,4 
1706,7 	14,221 	9283,0 
1707,2 	14,225 	9288,1 
1707,7 	14,229 	9284,7 
1708,2 	14,234 	9288,1 
1708,7 	14,238 	9284,7 
1709,2 	14,242 	9286,4 
1709,7 	14,246 	9284,7 
1710,2 	14,250 	9286,4 
1710,7 	14,254 	9289,7 
1711,2 	14,258 	9284,7 
1711,7 	14,263 	9288,1 
1712,2 	14,267 	9286,4 
1712,7 	14,271 	9289,7 
1713,2 	14,275 	9291,4 
1713,7 	14,279 	9286,4 
1714,2 	14,284 	9289,7 
1714,7 	14,287 	9284,7 
1715,2 	14,292 	9289,7 
1715,7 	14,296 	9289,7 
1716,2 	14,300 	9288,1 
1716,7 	14,304 	9291,4 
1717,2 	14,308 	9286,4 
1717,7 	14,313 	9291,4 
1718,2 	14,317 	9289,7 
1718,7 	14,321 	9289,7 
1719,2 	14,325 	9289,7 
1719,7 	14,329 	9288,1 
1720,2 	14,334 	9293,1 
1720,7 	14,337 	9288,1 
1721,2 	14,342 	9291,4 
1721,7 	14,346 	9291,4 
1722,2 	14,350 	9289,7 
1722,7 	14,354 	9293,1 
1723,2 	14,358 	9289,7 
1723,7 	14,363 	9294,8 
1724,2 	14,367 	9289,7 
1724,7 	14,371 	9291,4 
1725,2 	14,375 	9291,4 
1725,7 	14,379 	9291,4 
1726,2 	14,383 	9296,5 
1726,7 	14,387 	9289,7 
1727,2 	14,392 	9294,8 
1727,7 	14,396 	9291,4 
1728,2 	14,400 	9293,1 
1728,7 	14,404 	9296,5 
1729,2 	14,408 	9291,4 
1729,7 	14,413 	9294,8 
1730,2 	14,417 	9289,7 
1730,7 	14,421 	9294,8 
1731,2 	14,425 	9294,8 
1731,7 	14,429 	9293,1 
1732,2 	14,433 	9294,8 
1732,7 	14,437 	9291,4 
1733,2 	14,442 	9299,8 
1733,7 	14,446 	9294,8 
1734,2 	14,450 	9294,8 
1734,7 	14,454 	9294,8 
1735,2 	14,458 	9291,4 
1735,7 	14,463 	9296,5 
1736,2 	14,467 	9294,8 
1736,7 	14,471 	9296,5 
1737,2 	14,475 	9293,1 
1737,7 	14,479 	9294,8 
1738,2 	14,483 	9296,5 
1738,7 	14,487 	9294,8 
1739,2 	14,492 	9298,2 
1739,7 	14,496 	9294,8 
1740,2 	14,500 	9294,8 
1740,7 	14,504 	9294,8 
1741,2 	14,508 	9294,8 
1741,7 	14,513 	9298,2 
1742,2 	14,517 	9294,8 
1742,7 	14,521 	9298,2 
1743,2 	14,525 	9296,5 
1743,7 	14,529 	9296,5 
1744,2 	14,533 	9299,8 
1744,7 	14,538 	9296,5 
1745,2 	14,542 	9299,8 
1745,7 	14,546 	9293,1 
1746,2 	14,550 	9299,8 
1746,7 	14,554 	9298,2 
1747,2 	14,558 	9298,2 
1747,7 	14,563 	9298,2 
1748,2 	14,567 	9296,5 
1748,7 	14,571 	9299,8 
1749,2 	14,575 	9296,5 
1749,7 	14,579 	9298,2 
1750,2 	14,583 	9298,2 
1750,7 	14,588 	9294,8 
1751,2 	14,592 	9298,2 
1751,7 	14,596 	9296,5 
1752,2 	14,600 	9299,8 
1752,7 	14,604 	9296,5 
1753,2 	14,608 	9299,8 
1753,7 	14,613 	9301,5 
1754,2 	14,617 	9299,8 
1754,7 	14,621 	9303,2 
1755,2 	14,625 	9296,5 
1755,7 	14,629 	9299,8 
1756,2 	14,633 	9298,2 
1756,7 	14,637 	9299,8 
1757,2 	14,642 	9301,5 
1757,7 	14,646 	9298,2 
1758,2 	14,650 	9301,5 
1758,7 	14,654 	9298,2 
1759,2 	14,658 	9299,8 
1759,7 	14,663 	9299,8 
1760,2 	14,667 	9299,8 
1760,7 	14,671 	9301,5 
1761,2 	14,675 	9296,5 
1761,7 	14,679 	9301,5 
1762,2 	14,683 	9299,8 
1762,7 	14,688 	9299,8 
1763,2 	14,692 	9301,5 
1763,7 	14,696 	9298,2 
1764,2 	14,700 	9303,2 
1764,7 	14,704 	9299,8 
1765,2 	14,709 	9301,5 
1765,7 	14,713 	9299,8 
1766,2 	14,717 	9298,2 
1766,7 	14,721 	9299,8 
1767,2 	14,725 	9298,2 
1767,7 	14,729 	9303,2 
1768,2 	14,733 	9298,2 
1768,7 	14,738 	9299,8 
1769,2 	14,742 	9303,2 
1769,7 	14,746 	9299,8 
1770,2 	14,750 	9303,2 
1770,7 	14,754 	9299,8 
1771,2 	14,758 	9299,8 
1771,7 	14,762 	9298,2 
1772,2 	14,767 	9301,5 
1772,7 	14,771 	9303,2 
1773,2 	14,775 	9296,5 
1773,7 	14,779 	9304,9 
1774,2 	14,783 	9298,2 
1774,7 	14,788 	9303,2 
1775,2 	14,792 	9304,9 
1775,7 	14,796 	9299,8 
1776,2 	14,800 	9301,5 
1776,7 	14,804 	9298,2 
1777,2 	14,808 	9304,9 
1777,7 	14,813 	9301,5 
1778,2 	14,817 	9303,2 
1778,7 	14,821 	9301,5 
1779,2 	14,825 	9298,2 
1779,7 	14,829 	9304,9 
1780,2 	14,833 	9299,8 
1780,7 	14,838 	9301,5 
1781,2 	14,842 	9299,8 
1781,7 	14,846 	9299,8 
1782,2 	14,850 	9301,5 
1782,7 	14,854 	9299,8 
1783,2 	14,858 	9304,9 
1783,7 	14,862 	9299,8 
1784,2 	14,867 	9303,2 
1784,7 	14,871 	9301,5 
1785,2 	14,875 	9299,8 
1785,7 	14,879 	9304,9 
1786,2 	14,883 	9299,8 
1786,7 	14,888 	9301,5 
1787,2 	14,892 	9299,8 
1787,7 	14,896 	9301,5 
1788,2 	14,900 	9303,2 
1788,7 	14,904 	9301,5 
1789,2 	14,908 	9304,9 
1789,7 	14,912 	9298,2 
1790,2 	14,917 	9303,2 
1790,7 	14,921 	9303,2 
1791,2 	14,925 	9301,5 
1791,7 	14,929 	9303,2 
1792,2 	14,933 	9298,2 
1792,7 	14,938 	9303,2 
1793,2 	14,942 	9301,5 
1793,7 	14,946 	9301,5 
1794,2 	14,950 	9301,5 
1794,7 	14,954 	9299,8 
1795,2 	14,958 	9306,6 
1795,7 	14,962 	9299,8 
1796,2 	14,967 	9301,5 
1796,7 	14,971 	9301,5 
1797,2 	14,975 	9299,8 
1797,7 	14,979 	9303,2 
1798,2 	14,983 	9299,8 
1798,7 	14,988 	9304,9 
1799,2 	14,992 	9299,8 
1799,7 	14,996 	9303,2 
1800,2 	15,000 	9299,8 
1800,7 	15,004 	9301,5 
1801,2 	15,009 	9303,2 
1801,7 	15,013 	9296,5 
1802,2 	15,017 	9299,8 
1802,7 	15,021 	9296,5 
1803,2 	15,025 	9299,8 
1803,7 	15,029 	9301,5 
1804,2 	15,033 	9298,2 
1804,7 	15,038 	9303,2 
1805,2 	15,042 	9298,2 
1805,7 	15,046 	9299,8 
1806,2 	15,050 	9299,8 
1806,7 	15,054 	9299,8 
1807,2 	15,058 	9299,8 
1807,7 	15,062 	9294,8 
1808,2 	15,067 	9301,5 
1808,7 	15,071 	9298,2 
1809,2 	15,075 	9301,5 
1809,7 	15,079 	9298,2 
1810,2 	15,083 	9296,5 
1810,7 	15,088 	9299,8 
1811,2 	15,092 	9296,5 
1811,7 	15,096 	9298,2 
1812,2 	15,100 	9294,8 
1812,7 	15,104 	9296,5 
1813,2 	15,108 	9296,5 
1813,7 	15,112 	9296,5 
1814,2 	15,117 	9299,8 
1814,7 	15,121 	9293,1 
1815,2 	15,125 	9296,5 
1815,7 	15,129 	9296,5 
1816,2 	15,133 	9296,5 
1816,7 	15,138 	9296,5 
1817,2 	15,142 	9293,1 
1817,7 	15,146 	9296,5 
1818,2 	15,150 	9293,1 
1818,7 	15,154 	9294,8 
1819,2 	15,158 	9296,5 
1819,7 	15,163 	9293,1 
1820,2 	15,167 	9296,5 
1820,7 	15,171 	9291,4 
1821,2 	15,175 	9296,5 
1821,7 	15,179 	9293,1 
1822,2 	15,183 	9293,1 
1822,7 	15,188 	9291,4 
1823,2 	15,192 	9289,7 
1823,7 	15,196 	9293,1 
1824,2 	15,200 	9289,7 
1824,7 	15,204 	9293,1 
1825,2 	15,208 	9291,4 
1825,7 	15,212 	9289,7 
1826,2 	15,217 	9291,4 
1826,7 	15,221 	9288,1 
1827,2 	15,225 	9291,4 
1827,7 	15,229 	9288,1 
1828,2 	15,233 	9288,1 
1828,7 	15,238 	9288,1 
1829,2 	15,242 	9286,4 
1829,7 	15,246 	9291,4 
1830,2 	15,250 	9284,7 
1830,7 	15,254 	9288,1 
1831,2 	15,258 	9284,7 
1831,7 	15,263 	9286,4 
1832,2 	15,267 	9288,1 
1832,7 	15,271 	9284,7 
1833,2 	15,275 	9284,7 
1833,7 	15,279 	9281,3 
1834,2 	15,283 	9284,7 
1834,7 	15,287 	9284,7 
1835,2 	15,292 	9281,3 
1835,7 	15,296 	9283,0 
1836,2 	15,300 	9279,6 
1836,7 	15,304 	9284,7 
1837,2 	15,308 	9281,3 
1837,7 	15,313 	9279,6 
1838,2 	15,317 	9279,6 
1838,7 	15,321 	9276,3 
1839,2 	15,325 	9279,6 
1839,7 	15,329 	9276,3 
1840,2 	15,333 	9277,9 
1840,7 	15,337 	9274,6 
1841,2 	15,342 	9276,3 
1841,7 	15,346 	9276,3 
1842,2 	15,350 	9272,9 
1842,7 	15,354 	9276,3 
1843,2 	15,358 	9271,2 
1843,7 	15,363 	9271,2 
1844,2 	15,367 	9271,2 
1844,7 	15,371 	9269,5 
1845,2 	15,375 	9271,2 
1845,7 	15,379 	9267,8 
1846,2 	15,383 	9269,5 
1846,7 	15,387 	9266,2 
1847,2 	15,392 	9266,2 
1847,7 	15,396 	9267,8 
1848,2 	15,400 	9264,5 
1848,7 	15,404 	9266,2 
1849,2 	15,408 	9261,1 
1849,7 	15,413 	9262,8 
1850,2 	15,417 	9261,1 
1850,7 	15,421 	9259,4 
1851,2 	15,425 	9261,1 
1851,7 	15,429 	9256,0 
1852,2 	15,433 	9259,4 
1852,7 	15,437 	9254,4 
1853,2 	15,442 	9252,7 
1853,7 	15,446 	9252,7 
1854,2 	15,450 	9249,3 
1854,7 	15,454 	9252,7 
1855,2 	15,458 	9247,6 
1855,7 	15,463 	9249,3 
1856,2 	15,467 	9245,9 
1856,7 	15,471 	9244,3 
1857,2 	15,475 	9247,6 
1857,7 	15,479 	9240,9 
1858,2 	15,483 	9242,6 
1858,7 	15,487 	9235,8 
1859,2 	15,492 	9237,5 
1859,7 	15,496 	9235,8 
1860,2 	15,500 	9232,5 
1860,7 	15,504 	9235,8 
1861,2 	15,508 	9227,4 
1861,7 	15,513 	9230,8 
1862,2 	15,517 	9225,7 
1862,7 	15,521 	9225,7 
1863,2 	15,525 	9225,7 
1863,7 	15,529 	9220,7 
1864,2 	15,533 	9220,7 
1864,7 	15,537 	9213,9 
1865,2 	15,542 	9215,6 
1865,7 	15,546 	9213,9 
1866,2 	15,550 	9210,6 
1866,7 	15,554 	9210,6 
1867,2 	15,558 	9203,8 
1867,7 	15,563 	9207,2 
1868,2 	15,567 	9200,4 
1868,7 	15,571 	9198,8 
1869,2 	15,575 	9197,1 
1869,7 	15,579 	9192,0 
1870,2 	15,583 	9193,7 
1870,7 	15,587 	9187,0 
1871,2 	15,592 	9190,3 
1871,7 	15,596 	9183,6 
1872,2 	15,600 	9180,2 
1872,7 	15,604 	9180,2 
1873,2 	15,608 	9175,2 
1873,7 	15,613 	9175,2 
1874,2 	15,617 	9168,4 
1874,7 	15,621 	9166,8 
1875,2 	15,625 	9163,4 
1875,7 	15,629 	9161,7 
1876,2 	15,633 	9160,0 
1876,7 	15,637 	9153,3 
1877,2 	15,642 	9155,0 
1877,7 	15,646 	9148,2 
1878,2 	15,650 	9148,2 
1878,7 	15,654 	9146,5 
1879,2 	15,658 	9138,1 
1879,7 	15,663 	9139,8 
1880,2 	15,667 	9129,7 
1880,7 	15,671 	9133,1 
1881,2 	15,675 	9126,3 
1881,7 	15,679 	9122,9 
1882,2 	15,683 	9119,6 
1882,7 	15,687 	9112,8 
1883,2 	15,692 	9114,5 
1883,7 	15,696 	9106,1 
1884,2 	15,700 	9104,4 
1884,7 	15,704 	9101,0 
1885,2 	15,708 	9094,3 
1885,7 	15,713 	9092,6 
1886,2 	15,717 	9085,9 
1886,7 	15,721 	9085,9 
1887,2 	15,725 	9079,1 
1887,7 	15,729 	9074,1 
1888,2 	15,733 	9072,4 
1888,7 	15,738 	9064,0 
1889,2 	15,742 	9065,7 
1889,7 	15,746 	9055,6 
1890,2 	15,750 	9053,9 
1890,7 	15,754 	9047,1 
1891,2 	15,758 	9043,8 
1891,7 	15,763 	9042,1 
1892,2 	15,767 	9032,0 
1892,7 	15,771 	9033,7 
1893,2 	15,775 	9023,5 
1893,7 	15,779 	9021,9 
1894,2 	15,783 	9018,5 
1894,7 	15,788 	9008,4 
1895,2 	15,792 	9006,7 
1895,7 	15,796 	8998,3 
1896,2 	15,800 	8998,3 
1896,7 	15,804 	8989,9 
1897,2 	15,808 	8984,8 
1897,7 	15,813 	8981,4 
1898,2 	15,817 	8973,0 
1898,7 	15,821 	8976,4 
1899,2 	15,825 	8962,9 
1899,7 	15,829 	8957,8 
1900,2 	15,833 	8954,5 
1900,7 	15,837 	8946,0 
1901,2 	15,842 	8944,4 
1901,7 	15,846 	8935,9 
1902,2 	15,850 	8932,6 
1902,7 	15,854 	8922,5 
1903,2 	15,858 	8919,1 
1903,7 	15,862 	8912,4 
1904,2 	15,867 	8907,3 
1904,7 	15,871 	8903,9 
1905,2 	15,875 	8892,1 
1905,7 	15,879 	8888,8 
1906,2 	15,883 	8880,3 
1906,7 	15,887 	8875,3 
1907,2 	15,892 	8871,9 
1907,7 	15,896 	8861,8 
1908,2 	15,900 	8860,1 
1908,7 	15,904 	8848,3 
1909,2 	15,908 	8843,3 
1909,7 	15,913 	8838,2 
1910,2 	15,917 	8829,8 
1910,7 	15,921 	8824,7 
1911,2 	15,925 	8811,3 
1911,7 	15,929 	8813,0 
1912,2 	15,933 	8801,2 
1912,7 	15,938 	8796,1 
1913,2 	15,942 	8789,4 
1913,7 	15,946 	8779,3 
1914,2 	15,950 	8777,6 
1914,7 	15,954 	8765,8 
1915,2 	15,958 	8759,0 
1915,7 	15,963 	8750,6 
1916,2 	15,967 	8742,2 
1916,7 	15,971 	8737,1 
1917,2 	15,975 	8728,7 
1917,7 	15,979 	8723,7 
1918,2 	15,983 	8711,9 
1918,7 	15,988 	8708,5 
1919,2 	15,992 	8701,8 
1919,7 	15,996 	8690,0 
1920,2 	16,000 	8686,6 
1920,7 	16,004 	8671,4 
1921,2 	16,008 	8668,1 
1921,7 	16,012 	8658,0 
1922,2 	16,017 	8651,2 
1922,7 	16,021 	8642,8 
1923,2 	16,025 	8632,7 
1923,7 	16,029 	8627,6 
1924,2 	16,033 	8614,2 
1924,7 	16,038 	8609,1 
1925,2 	16,042 	8600,7 
1925,7 	16,046 	8590,6 
1926,2 	16,050 	8583,8 
1926,7 	16,054 	8570,3 
1927,2 	16,058 	8567,0 
1927,7 	16,062 	8555,2 
1928,2 	16,067 	8546,8 
1928,7 	16,071 	8538,3 
1929,2 	16,075 	8526,5 
1929,7 	16,079 	8521,5 
1930,2 	16,083 	8508,0 
1930,7 	16,088 	8503,0 
1931,2 	16,092 	8489,5 
1931,7 	16,096 	8481,1 
1932,2 	16,100 	8474,3 
1932,7 	16,104 	8460,8 
1933,2 	16,108 	8459,2 
1933,7 	16,112 	8440,6 
1934,2 	16,117 	8433,9 
1934,7 	16,121 	8425,5 
1935,2 	16,125 	8415,4 
1935,7 	16,129 	8406,9 
1936,2 	16,133 	8391,8 
1936,7 	16,138 	8385,0 
1937,2 	16,142 	8371,5 
1937,7 	16,146 	8363,1 
1938,2 	16,150 	8354,7 
1938,7 	16,154 	8339,5 
1939,2 	16,158 	8332,8 
1939,7 	16,162 	8317,6 
1940,2 	16,167 	8312,6 
1940,7 	16,171 	8299,1 
1941,2 	16,175 	8285,6 
1941,7 	16,179 	8277,2 
1942,2 	16,183 	8262,0 
1942,7 	16,188 	8255,3 
1943,2 	16,192 	8241,8 
1943,7 	16,196 	8231,7 
1944,2 	16,200 	8218,2 
1944,7 	16,204 	8208,1 
1945,2 	16,208 	8198,0 
1945,7 	16,212 	8181,2 
1946,2 	16,217 	8172,7 
1946,7 	16,221 	8157,6 
1947,2 	16,225 	8147,5 
1947,7 	16,229 	8137,4 
1948,2 	16,233 	8123,9 
1948,7 	16,238 	8115,5 
1949,2 	16,242 	8096,9 
1949,7 	16,246 	8088,5 
1950,2 	16,250 	8073,3 
1950,7 	16,254 	8059,9 
1951,2 	16,258 	8051,4 
1951,7 	16,262 	8032,9 
1952,2 	16,267 	8022,8 
1952,7 	16,271 	8006,0 
1953,2 	16,275 	7997,5 
1953,7 	16,279 	7984,1 
1954,2 	16,283 	7967,2 
1954,7 	16,288 	7957,1 
1955,2 	16,292 	7938,6 
1955,7 	16,296 	7928,5 
1956,2 	16,300 	7915,0 
1956,7 	16,304 	7898,1 
1957,2 	16,308 	7884,7 
1957,7 	16,312 	7867,8 
1958,2 	16,317 	7857,7 
1958,7 	16,321 	7839,2 
1959,2 	16,325 	7825,7 
1959,7 	16,329 	7810,5 
1960,2 	16,333 	7795,4 
1960,7 	16,338 	7785,3 
1961,2 	16,342 	7763,4 
1961,7 	16,346 	7751,6 
1962,2 	16,350 	7731,3 
1962,7 	16,354 	7717,9 
1963,2 	16,358 	7704,4 
1963,7 	16,362 	7684,2 
1964,2 	16,367 	7672,4 
1964,7 	16,371 	7650,5 
1965,2 	16,375 	7637,0 
1965,7 	16,379 	7618,5 
1966,2 	16,383 	7601,6 
1966,7 	16,388 	7584,8 
1967,2 	16,392 	7564,5 
1967,7 	16,396 	7549,4 
1968,2 	16,400 	7527,5 
1968,7 	16,404 	7512,3 
1969,2 	16,408 	7493,8 
1969,7 	16,412 	7471,9 
1970,2 	16,417 	7455,0 
1970,7 	16,421 	7429,8 
1971,2 	16,425 	7412,9 
1971,7 	16,429 	7387,6 
1972,2 	16,433 	7360,7 
1972,7 	16,438 	7335,4 
1973,2 	16,442 	7301,7 
1973,7 	16,446 	7266,3 
1974,1 	16,449 	7193,9 
1974,3 	16,451 	7121,5 
1974,4 	16,452 	7049,0 
1974,5 	16,454 	4823,5 
1974,5 	16,454 	542,49 
