Tempo(s)	Deformao(mm)	Fora(N)
0,016667 	0,00000 	22,437 
0,066667 	0,0012083 	25,642 
0,083333 	0,0025893 	25,642 
0,10000 	0,0036250 	22,437 
0,11667 	0,0047470 	22,437 
0,13333 	0,0060417 	22,437 
0,15000 	0,0072500 	22,437 
0,16667 	0,0087173 	22,437 
0,18333 	0,010098 	25,642 
0,20000 	0,011652 	25,642 
0,21667 	0,013378 	25,642 
0,23333 	0,015104 	28,847 
0,25000 	0,016658 	28,847 
0,26667 	0,018211 	28,847 
0,28333 	0,019851 	28,847 
0,30000 	0,021577 	32,052 
0,31667 	0,023304 	35,257 
0,33333 	0,024771 	35,257 
0,35000 	0,026325 	41,668 
0,36667 	0,028051 	44,873 
0,38333 	0,029863 	51,284 
0,40000 	0,031417 	57,694 
0,41667 	0,032970 	60,899 
0,43333 	0,034697 	67,310 
0,45000 	0,036423 	73,720 
0,46667 	0,038149 	80,131 
0,48333 	0,039703 	86,541 
0,50000 	0,041342 	89,746 
0,51667 	0,043069 	96,157 
0,53333 	0,044795 	105,77 
0,55000 	0,046348 	112,18 
0,56667 	0,047902 	118,59 
0,58333 	0,049715 	125,00 
0,60000 	0,051441 	131,41 
0,61667 	0,052994 	141,03 
0,63333 	0,054548 	147,44 
0,65000 	0,056360 	153,85 
0,66667 	0,058173 	163,47 
0,68333 	0,059813 	173,08 
0,70000 	0,061366 	182,70 
0,71667 	0,063006 	189,11 
0,73333 	0,064819 	201,93 
0,75000 	0,066459 	211,54 
0,76667 	0,068012 	221,16 
0,78333 	0,069566 	230,78 
0,80000 	0,071378 	240,39 
0,81667 	0,073105 	253,21 
0,83333 	0,074658 	266,03 
0,85000 	0,076212 	278,85 
0,86667 	0,078024 	288,47 
0,88333 	0,079750 	301,29 
0,90000 	0,081477 	314,11 
0,91667 	0,083030 	330,14 
0,93333 	0,084670 	342,96 
0,95000 	0,086483 	352,57 
0,96667 	0,088123 	368,60 
0,98333 	0,089590 	381,42 
1,0000 	0,091316 	397,45 
1,0167 	0,093042 	410,27 
1,0333 	0,094768 	426,29 
1,0500 	0,096322 	439,12 
1,0667 	0,097876 	451,94 
1,0833 	0,099688 	464,76 
1,1000 	0,10150 	480,78 
1,1167 	0,10314 	493,60 
1,1333 	0,10469 	506,43 
1,1500 	0,10642 	522,45 
1,1667 	0,10815 	535,27 
1,1833 	0,10979 	551,30 
1,2000 	0,11134 	567,32 
1,2167 	0,11289 	580,15 
1,2333 	0,11471 	596,17 
1,2500 	0,11643 	612,20 
1,2667 	0,11799 	628,22 
1,2833 	0,11954 	644,25 
1,3000 	0,12135 	660,28 
1,3167 	0,12316 	673,10 
1,3333 	0,12472 	692,33 
1,3500 	0,12627 	708,35 
1,3667 	0,12800 	724,38 
1,3833 	0,12981 	740,41 
1,4000 	0,13145 	756,43 
1,4167 	0,13292 	775,66 
1,4333 	0,13464 	791,69 
1,4500 	0,13637 	807,72 
1,4667 	0,13810 	826,95 
1,4833 	0,13965 	842,97 
1,5000 	0,14129 	862,21 
1,5167 	0,14310 	878,23 
1,5333 	0,14491 	894,26 
1,5500 	0,14647 	913,49 
1,5667 	0,14802 	929,51 
1,5833 	0,14975 	945,54 
1,6000 	0,15156 	961,57 
1,6167 	0,15320 	980,80 
1,6333 	0,15467 	1000,0 
1,6500 	0,15631 	1016,1 
1,6667 	0,15803 	1035,3 
1,6833 	0,15976 	1054,5 
1,7000 	0,16131 	1077,0 
1,7167 	0,16287 	1096,2 
1,7333 	0,16468 	1115,4 
1,7500 	0,16649 	1134,6 
1,7667 	0,16805 	1157,1 
1,7833 	0,16969 	1176,3 
1,8000 	0,17133 	1195,5 
1,8167 	0,17314 	1211,6 
1,8333 	0,17478 	1234,0 
1,8500 	0,17625 	1256,4 
1,8667 	0,17797 	1275,7 
1,8833 	0,17978 	1294,9 
1,9000 	0,18142 	1317,3 
1,9167 	0,18298 	1336,6 
1,9333 	0,18462 	1355,8 
1,9500 	0,18634 	1375,0 
1,9667 	0,18816 	1394,3 
1,9833 	0,18980 	1416,7 
2,0000 	0,19135 	1435,9 
2,0167 	0,19308 	1452,0 
2,0333 	0,19480 	1471,2 
2,0500 	0,19644 	1493,6 
2,0667 	0,19800 	1516,1 
2,0833 	0,19964 	1535,3 
2,1000 	0,20136 	1554,5 
2,1167 	0,20309 	1580,2 
2,1333 	0,20464 	1602,6 
2,1500 	0,20619 	1628,3 
2,1667 	0,20801 	1647,5 
2,1833 	0,20982 	1666,7 
2,2000 	0,21137 	1692,4 
2,2167 	0,21293 	1714,8 
2,2333 	0,21474 	1734,0 
2,2500 	0,21647 	1756,5 
2,2667 	0,21811 	1778,9 
2,2833 	0,21957 	1804,5 
2,3000 	0,22130 	1827,0 
2,3167 	0,22311 	1849,4 
2,3333 	0,22475 	1871,9 
2,3500 	0,22622 	1894,3 
2,3667 	0,22794 	1916,7 
2,3833 	0,22976 	1936,0 
2,4000 	0,23148 	1958,4 
2,4167 	0,23304 	1980,8 
2,4333 	0,23468 	2003,3 
2,4500 	0,23640 	2022,5 
2,4667 	0,23822 	2044,9 
2,4833 	0,23977 	2067,4 
2,5000 	0,24124 	2093,0 
2,5167 	0,24296 	2115,4 
2,5333 	0,24469 	2137,9 
2,5500 	0,24642 	2163,5 
2,5667 	0,24788 	2189,2 
2,5833 	0,24961 	2211,6 
2,6000 	0,25133 	2230,8 
2,6167 	0,25315 	2256,5 
2,6333 	0,25470 	2282,1 
2,6500 	0,25634 	2307,8 
2,6667 	0,25807 	2330,2 
2,6833 	0,25979 	2352,6 
2,7000 	0,26143 	2378,3 
2,7167 	0,26290 	2407,1 
2,7333 	0,26463 	2429,6 
2,7500 	0,26644 	2455,2 
2,7667 	0,26808 	2480,8 
2,7833 	0,26955 	2506,5 
2,8000 	0,27127 	2528,9 
2,8167 	0,27308 	2548,2 
2,8333 	0,27481 	2573,8 
2,8500 	0,27645 	2596,2 
2,8667 	0,27800 	2621,9 
2,8833 	0,27982 	2644,3 
2,9000 	0,28154 	2666,7 
2,9167 	0,28310 	2692,4 
2,9333 	0,28456 	2721,2 
2,9500 	0,28629 	2743,7 
2,9667 	0,28810 	2766,1 
2,9833 	0,28974 	2791,7 
3,0000 	0,29121 	2820,6 
3,0167 	0,29294 	2846,2 
3,0333 	0,29475 	2868,7 
3,0500 	0,29647 	2894,3 
3,0667 	0,29803 	2923,2 
3,0833 	0,29967 	2948,8 
3,1000 	0,30139 	2971,2 
3,1167 	0,30312 	2996,9 
3,1333 	0,30476 	3025,7 
3,1500 	0,30623 	3054,6 
3,1667 	0,30795 	3077,0 
3,1833 	0,30977 	3102,7 
3,2000 	0,31141 	3128,3 
3,2167 	0,31287 	3153,9 
3,2333 	0,31469 	3176,4 
3,2500 	0,31650 	3202,0 
3,2667 	0,31822 	3227,7 
3,2833 	0,31978 	3256,5 
3,3000 	0,32142 	3278,9 
3,3167 	0,32314 	3301,4 
3,3500 	0,32642 	3352,7 
3,3667 	0,32798 	3378,3 
3,3833 	0,32962 	3403,9 
3,4000 	0,33143 	3429,6 
3,4167 	0,33307 	3458,4 
3,4333 	0,33454 	3490,5 
3,4500 	0,33626 	3516,1 
3,4833 	0,33980 	3567,4 
3,5000 	0,34136 	3596,3 
3,5167 	0,34300 	3621,9 
3,5333 	0,34472 	3647,5 
3,5500 	0,34645 	3673,2 
3,5667 	0,34800 	3705,2 
3,5833 	0,34956 	3730,9 
3,6000 	0,35137 	3756,5 
3,6167 	0,35309 	3782,2 
3,6333 	0,35473 	3814,2 
3,6500 	0,35620 	3839,9 
3,6667 	0,35801 	3865,5 
3,7000 	0,36147 	3916,8 
3,7167 	0,36302 	3945,6 
3,7500 	0,36647 	3993,7 
3,7833 	0,36975 	4045,0 
3,8000 	0,37131 	4073,8 
3,8167 	0,37295 	4099,5 
3,8333 	0,37476 	4128,3 
3,8667 	0,37787 	4189,2 
3,9000 	0,38149 	4240,5 
3,9333 	0,38468 	4298,2 
3,9667 	0,38814 	4349,5 
4,0000 	0,39133 	4410,4 
4,0333 	0,39470 	4464,9 
4,0667 	0,39798 	4522,6 
4,1000 	0,40134 	4573,9 
4,1333 	0,40479 	4625,1 
4,1667 	0,40799 	4679,6 
4,2000 	0,41144 	4734,1 
4,2333 	0,41455 	4788,6 
4,2667 	0,41809 	4839,9 
4,2833 	0,41964 	4871,9 
4,3167 	0,42292 	4926,4 
4,3500 	0,42646 	4984,1 
4,3833 	0,42965 	5038,6 
4,4167 	0,43310 	5093,1 
4,4500 	0,43621 	5154,0 
4,4833 	0,43975 	5208,5 
4,5167 	0,44294 	5266,2 
4,5500 	0,44648 	5317,5 
4,5833 	0,44968 	5368,7 
4,6167 	0,45313 	5391,2 
4,6667 	0,45796 	5413,6 
4,7167 	0,46297 	5455,3 
4,7667 	0,46815 	5493,8 
4,8167 	0,47298 	5529,0 
4,8667 	0,47798 	5506,6 
4,9167 	0,48308 	5506,6 
4,9667 	0,48808 	5503,4 
5,0167 	0,49309 	5509,8 
5,0667 	0,49818 	5535,4 
5,1167 	0,50301 	5567,5 
5,1667 	0,50785 	5605,9 
5,2167 	0,51303 	5631,6 
5,2667 	0,51812 	5654,0 
5,3167 	0,52295 	5679,7 
5,3667 	0,52796 	5702,1 
5,4167 	0,53322 	5718,1 
5,4667 	0,53806 	5737,3 
5,5167 	0,54298 	5759,8 
5,5667 	0,54807 	5782,2 
5,6167 	0,55307 	5801,5 
5,6667 	0,55799 	5820,7 
5,7167 	0,56309 	5833,5 
5,7667 	0,56809 	5852,7 
5,8167 	0,57293 	5872,0 
5,8667 	0,57810 	5884,8 
5,9167 	0,58320 	5900,8 
5,9667 	0,58794 	5920,0 
6,0167 	0,59295 	5939,3 
6,0667 	0,59813 	5955,3 
6,1167 	0,60305 	5971,3 
6,1667 	0,60788 	5990,6 
6,2167 	0,61306 	6000,2 
6,2667 	0,61807 	6013,0 
6,3167 	0,62299 	6029,0 
6,3667 	0,62808 	6045,1 
6,4167 	0,63308 	6054,7 
6,4833 	0,63973 	6077,1 
6,5333 	0,64465 	6093,1 
6,5833 	0,64966 	6106,0 
6,6333 	0,65483 	6115,6 
6,7000 	0,66148 	6128,4 
6,7667 	0,66813 	6147,6 
6,8333 	0,67460 	6163,6 
6,9000 	0,68124 	6182,9 
6,9667 	0,68798 	6198,9 
7,0333 	0,69454 	6211,7 
7,1000 	0,70127 	6224,5 
7,1667 	0,70800 	6237,4 
7,2333 	0,71473 	6250,2 
7,3000 	0,72138 	6269,4 
7,3667 	0,72811 	6279,0 
7,4333 	0,73484 	6295,1 
7,5000 	0,74149 	6307,9 
7,5667 	0,74814 	6317,5 
7,6333 	0,75478 	6330,3 
7,7000 	0,76134 	6343,1 
7,7667 	0,76799 	6356,0 
7,8333 	0,77463 	6368,8 
7,9000 	0,78128 	6381,6 
7,9667 	0,78784 	6391,2 
8,0333 	0,79466 	6397,6 
8,1000 	0,80139 	6410,4 
8,1667 	0,80803 	6423,3 
8,2333 	0,81477 	6432,9 
8,3000 	0,82150 	6442,5 
8,3667 	0,82814 	6452,1 
8,4333 	0,83488 	6458,5 
8,5000 	0,84152 	6464,9 
8,5833 	0,84981 	6481,0 
8,6500 	0,85645 	6490,6 
8,7167 	0,86310 	6500,2 
8,8000 	0,87147 	6513,0 
8,8667 	0,87820 	6516,2 
8,9500 	0,88649 	6529,0 
9,0333 	0,89469 	6545,1 
9,1167 	0,90298 	6551,5 
9,2000 	0,91126 	6561,1 
9,2833 	0,91972 	6567,5 
9,3667 	0,92818 	6573,9 
9,4500 	0,93646 	6586,7 
9,5333 	0,94475 	6599,6 
9,6167 	0,95295 	6609,2 
9,7000 	0,96123 	6615,6 
9,7833 	0,96969 	6622,0 
9,8667 	0,97806 	6631,6 
9,9500 	0,98652 	6641,2 
10,033 	0,99472 	6647,6 
10,117 	1,0029 	6657,2 
10,200 	1,0114 	6663,7 
10,283 	1,0197 	6670,1 
10,367 	1,0280 	6679,7 
10,450 	1,0365 	6686,1 
10,533 	1,0447 	6692,5 
10,617 	1,0531 	6702,1 
10,700 	1,0613 	6708,5 
10,783 	1,0696 	6718,1 
10,867 	1,0781 	6718,1 
10,950 	1,0865 	6727,8 
11,050 	1,0964 	6737,4 
11,150 	1,1063 	6743,8 
11,250 	1,1165 	6750,2 
11,350 	1,1263 	6763,0 
11,450 	1,1364 	6763,0 
11,550 	1,1464 	6775,8 
11,650 	1,1563 	6785,5 
11,750 	1,1665 	6788,7 
11,850 	1,1762 	6798,3 
11,950 	1,1865 	6801,5 
12,050 	1,1963 	6817,5 
12,150 	1,2064 	6820,7 
12,250 	1,2165 	6827,1 
12,350 	1,2264 	6833,5 
12,450 	1,2364 	6839,9 
12,550 	1,2464 	6846,4 
12,650 	1,2562 	6856,0 
12,750 	1,2665 	6856,0 
12,850 	1,2764 	6868,8 
12,950 	1,2864 	6875,2 
13,050 	1,2965 	6881,6 
13,167 	1,3080 	6884,8 
13,283 	1,3197 	6897,6 
13,400 	1,3315 	6900,8 
13,517 	1,3430 	6910,5 
13,633 	1,3548 	6913,7 
13,750 	1,3664 	6923,3 
13,867 	1,3779 	6932,9 
13,983 	1,3898 	6939,3 
14,100 	1,4014 	6942,5 
14,217 	1,4129 	6958,5 
14,333 	1,4248 	6958,5 
14,450 	1,4363 	6961,7 
14,567 	1,4481 	6974,6 
14,683 	1,4598 	6977,8 
14,800 	1,4712 	6990,6 
14,917 	1,4832 	6990,6 
15,050 	1,4964 	7000,2 
15,183 	1,5097 	7006,6 
15,317 	1,5230 	7016,2 
15,450 	1,5362 	7022,6 
15,583 	1,5496 	7032,3 
15,717 	1,5630 	7038,7 
15,850 	1,5765 	7041,9 
15,983 	1,5898 	7051,5 
16,117 	1,6030 	7061,1 
16,250 	1,6163 	7064,3 
16,383 	1,6295 	7077,1 
16,517 	1,6430 	7083,5 
16,650 	1,6565 	7086,7 
16,783 	1,6698 	7096,4 
16,917 	1,6831 	7102,8 
17,050 	1,6964 	7109,2 
17,183 	1,7096 	7115,6 
17,317 	1,7229 	7125,2 
17,450 	1,7363 	7134,8 
17,600 	1,7512 	7141,2 
17,750 	1,7663 	7147,6 
17,900 	1,7813 	7154,1 
18,050 	1,7963 	7160,5 
18,200 	1,8114 	7170,1 
18,350 	1,8264 	7173,3 
18,500 	1,8414 	7182,9 
18,650 	1,8565 	7192,5 
18,800 	1,8715 	7198,9 
18,950 	1,8864 	7211,8 
19,100 	1,9014 	7218,2 
19,250 	1,9163 	7224,6 
19,400 	1,9313 	7237,4 
19,550 	1,9463 	7240,6 
19,717 	1,9631 	7243,8 
19,883 	1,9798 	7256,6 
20,050 	1,9963 	7263,0 
20,217 	2,0130 	7269,4 
20,383 	2,0298 	7279,1 
20,550 	2,0464 	7288,7 
20,717 	2,0630 	7295,1 
20,883 	2,0798 	7304,7 
21,050 	2,0963 	7311,1 
21,217 	2,1130 	7320,7 
21,383 	2,1299 	7323,9 
21,567 	2,1479 	7340,0 
21,733 	2,1647 	7343,2 
21,917 	2,1830 	7352,8 
22,100 	2,2014 	7362,4 
22,283 	2,2197 	7368,8 
22,467 	2,2382 	7378,4 
22,650 	2,2562 	7388,0 
22,833 	2,2747 	7397,7 
23,017 	2,2930 	7407,3 
23,200 	2,3114 	7416,9 
23,383 	2,3298 	7420,1 
23,567 	2,3481 	7432,9 
23,750 	2,3664 	7439,3 
23,950 	2,3863 	7448,9 
24,150 	2,4062 	7461,8 
24,350 	2,4263 	7471,4 
24,550 	2,4465 	7477,8 
24,750 	2,4664 	7487,4 
24,950 	2,4862 	7493,8 
25,150 	2,5063 	7509,8 
25,350 	2,5265 	7513,0 
25,550 	2,5465 	7522,7 
25,750 	2,5664 	7529,1 
25,967 	2,5880 	7541,9 
26,183 	2,6098 	7548,3 
26,400 	2,6314 	7561,1 
26,617 	2,6531 	7570,7 
26,833 	2,6747 	7580,4 
27,050 	2,6964 	7590,0 
27,267 	2,7181 	7599,6 
27,483 	2,7398 	7606,0 
27,700 	2,7614 	7618,8 
27,917 	2,7832 	7628,4 
28,133 	2,8048 	7638,0 
28,367 	2,8282 	7650,9 
28,600 	2,8513 	7663,7 
28,833 	2,8746 	7670,1 
29,067 	2,8981 	7679,7 
29,300 	2,9214 	7692,5 
29,533 	2,9446 	7705,4 
29,767 	2,9679 	7718,2 
30,000 	2,9914 	7718,2 
30,233 	3,0148 	7731,0 
30,483 	3,0397 	7740,6 
30,733 	3,0648 	7753,4 
30,983 	3,0896 	7763,1 
31,233 	3,1148 	7775,9 
31,483 	3,1395 	7791,9 
31,733 	3,1648 	7795,1 
31,983 	3,1897 	7807,9 
32,233 	3,2148 	7814,3 
32,500 	3,2412 	7830,4 
32,750 	3,2665 	7840,0 
33,017 	3,2930 	7849,6 
33,283 	3,3197 	7865,6 
33,550 	3,3465 	7872,0 
33,817 	3,3731 	7888,1 
34,083 	3,3996 	7900,9 
34,350 	3,4264 	7907,3 
34,617 	3,4532 	7916,9 
34,900 	3,4814 	7929,7 
35,183 	3,5098 	7939,3 
35,467 	3,5381 	7955,4 
35,750 	3,5663 	7961,8 
36,033 	3,5946 	7977,8 
36,317 	3,6230 	7990,6 
36,600 	3,6513 	8000,2 
36,900 	3,6814 	8009,9 
37,200 	3,7115 	8022,7 
37,500 	3,7415 	8035,5 
37,800 	3,7715 	8048,3 
38,100 	3,8013 	8064,3 
38,400 	3,8313 	8077,2 
38,700 	3,8614 	8083,6 
39,017 	3,8930 	8099,6 
39,333 	3,9246 	8112,4 
39,650 	3,9565 	8122,0 
39,967 	3,9880 	8138,1 
40,283 	4,0197 	8150,9 
40,600 	4,0515 	8160,5 
40,933 	4,0847 	8173,3 
41,267 	4,1180 	8182,9 
41,600 	4,1514 	8199,0 
41,933 	4,1847 	8211,8 
42,267 	4,2179 	8224,6 
42,600 	4,2515 	8234,2 
42,950 	4,2865 	8247,0 
43,300 	4,3213 	8263,1 
43,650 	4,3563 	8275,9 
44,000 	4,3912 	8288,7 
44,350 	4,4263 	8298,3 
44,700 	4,4615 	8311,1 
45,050 	4,4965 	8327,2 
45,417 	4,5332 	8336,8 
45,783 	4,5698 	8349,6 
46,150 	4,6063 	8365,6 
46,517 	4,6430 	8375,2 
46,883 	4,6796 	8388,1 
47,250 	4,7163 	8400,9 
47,633 	4,7548 	8413,7 
48,017 	4,7930 	8426,5 
48,400 	4,8313 	8439,4 
48,783 	4,8698 	8452,2 
49,167 	4,9080 	8465,0 
49,567 	4,9481 	8474,6 
49,967 	4,9880 	8487,4 
50,367 	5,0282 	8500,3 
50,767 	5,0680 	8509,9 
51,167 	5,1082 	8522,7 
51,583 	5,1499 	8538,7 
52,000 	5,1913 	8551,5 
52,417 	5,2329 	8567,6 
52,833 	5,2747 	8580,4 
53,250 	5,3164 	8590,0 
53,667 	5,3581 	8602,8 
54,100 	5,4015 	8615,6 
54,533 	5,4448 	8628,5 
54,967 	5,4881 	8638,1 
55,400 	5,5314 	8650,9 
55,833 	5,5748 	8663,7 
56,283 	5,6196 	8676,5 
56,733 	5,6645 	8686,2 
57,183 	5,7097 	8695,8 
57,633 	5,7548 	8705,4 
58,083 	5,7998 	8718,2 
58,550 	5,8465 	8724,6 
59,017 	5,8931 	8737,4 
59,483 	5,9397 	8750,3 
59,950 	5,9864 	8763,1 
60,433 	6,0348 	8772,7 
60,917 	6,0830 	8785,5 
61,400 	6,1313 	8798,3 
61,883 	6,1798 	8804,7 
62,367 	6,2280 	8811,2 
62,867 	6,2781 	8820,8 
63,367 	6,3280 	8833,6 
63,867 	6,3780 	8843,2 
64,367 	6,4280 	8856,0 
64,867 	6,4779 	8865,6 
65,367 	6,5279 	8872,1 
65,867 	6,5780 	8881,7 
66,367 	6,6279 	8888,1 
66,867 	6,6779 	8900,9 
67,367 	6,7280 	8907,3 
67,867 	6,7780 	8916,9 
68,367 	6,8280 	8926,5 
68,867 	6,8781 	8929,8 
69,367 	6,9282 	8929,8 
69,867 	6,9782 	8942,6 
70,367 	7,0281 	8949,0 
70,867 	7,0782 	8958,6 
71,367 	7,1281 	8965,0 
71,867 	7,1781 	8968,2 
72,367 	7,2282 	8971,4 
72,867 	7,2780 	8977,8 
73,367 	7,3280 	8984,2 
73,867 	7,3780 	8993,9 
74,367 	7,4279 	9000,3 
74,867 	7,4780 	9003,5 
75,367 	7,5280 	9006,7 
75,867 	7,5779 	9006,7 
76,367 	7,6279 	9016,3 
76,867 	7,6780 	9019,5 
77,367 	7,7279 	9022,7 
77,867 	7,7779 	9029,1 
78,367 	7,8281 	9025,9 
78,867 	7,8781 	9025,9 
79,367 	7,9281 	9029,1 
79,867 	7,9782 	9035,5 
80,367 	8,0281 	9035,5 
80,867 	8,0781 	9035,5 
81,367 	8,1282 	9032,3 
81,867 	8,1782 	9032,3 
82,367 	8,2281 	9032,3 
82,867 	8,2781 	9032,3 
83,367 	8,3281 	9032,3 
83,867 	8,3780 	9035,5 
84,367 	8,4280 	9029,1 
84,867 	8,4781 	9022,7 
85,367 	8,5279 	9019,5 
85,867 	8,5779 	9016,3 
86,367 	8,6280 	9013,1 
86,867 	8,6779 	9009,9 
87,367 	8,7279 	9000,3 
87,867 	8,7781 	8987,4 
88,367 	8,8280 	8971,4 
88,867 	8,8780 	8961,8 
89,367 	8,9281 	8949,0 
89,867 	8,9781 	8933,0 
90,367 	9,0280 	8920,1 
90,867 	9,0782 	8894,5 
91,367 	9,1282 	8862,4 
91,867 	9,1781 	8840,0 
92,367 	9,2281 	8808,0 
92,867 	9,2781 	8772,7 
93,367 	9,3280 	8737,4 
93,867 	9,3780 	8689,4 
94,367 	9,4281 	8638,1 
94,867 	9,4780 	8580,4 
95,367 	9,5279 	8525,9 
95,867 	9,5780 	8461,8 
96,367 	9,6279 	8391,3 
96,817 	9,6730 	8320,8 
97,267 	9,7181 	8250,2 
97,667 	9,7579 	8179,7 
98,033 	9,7947 	8109,2 
98,417 	9,8331 	8038,7 
98,767 	9,8681 	7968,2 
99,117 	9,9031 	7894,5 
99,467 	9,9380 	7823,9 
99,783 	9,9698 	7753,4 
100,07 	9,9981 	7682,9 
100,38 	10,030 	7612,4 
100,68 	10,060 	7541,9 
100,92 	10,083 	7471,4 
101,22 	10,113 	7397,7 
101,48 	10,140 	7327,1 
101,72 	10,163 	7256,6 
102,00 	10,191 	7182,9 
102,22 	10,213 	7109,2 
102,47 	10,238 	7038,7 
102,68 	10,260 	6968,2 
102,92 	10,283 	6894,4 
103,13 	10,305 	6820,7 
103,35 	10,326 	6747,0 
103,55 	10,346 	6676,5 
103,77 	10,368 	6602,8 
103,95 	10,386 	6529,0 
104,15 	10,406 	6458,5 
104,32 	10,423 	6384,8 
104,52 	10,443 	6311,1 
104,70 	10,461 	6234,2 
104,88 	10,480 	6160,4 
105,05 	10,496 	6089,9 
105,22 	10,513 	6013,0 
105,38 	10,530 	5942,5 
105,53 	10,545 	5872,0 
105,68 	10,560 	5801,5 
105,83 	10,575 	5730,9 
105,97 	10,588 	5657,2 
106,12 	10,603 	5583,5 
106,27 	10,618 	5513,0 
106,40 	10,631 	5436,1 
106,53 	10,645 	5362,3 
106,67 	10,658 	5291,8 
106,80 	10,671 	5214,9 
106,92 	10,683 	5141,2 
107,05 	10,696 	5067,5 
107,17 	10,708 	4993,7 
107,28 	10,720 	4916,8 
107,40 	10,731 	4839,9 
107,52 	10,743 	4763,0 
107,62 	10,753 	4692,4 
107,72 	10,763 	4615,5 
107,82 	10,773 	4545,0 
107,92 	10,783 	4474,5 
108,02 	10,793 	4397,6 
108,10 	10,801 	4320,6 
108,18 	10,810 	4246,9 
108,27 	10,818 	4173,2 
108,35 	10,826 	4093,1 
108,42 	10,833 	4003,3 
108,43 	10,835 	3198,8 
108,45 	10,836 	750,02 
